# SwiftEEG raw counts,rate=250,gain=24,lsb_uv=0.022351742
ts_us,seq,ch1_C4,ch2_P4,ch3_F4,ch4_Oz,ch5_AFz,ch6_F3,ch7_C3,ch8_P3
2034980693,1977227,20097,3298356,-5358131,3209558,-6588698,-7438671,-7916506,-7663547
2034980694,1977228,22240,3303888,-5359297,3204522,-6590539,-7440098,-7922099,-7667640
2034980695,1977229,19113,3302309,-5359547,3199839,-6591221,-7440852,-7926714,-7670361
2034980696,1977230,10819,3293934,-5359302,3193413,-6591127,-7441253,-7930455,-7672010
2034980697,1977231,-24886,3259103,-5358380,3168258,-6589697,-7440417,-7927789,-7669334
2034980698,1977232,-80420,3214579,-5357030,3132058,-6587187,-7438146,-7915099,-7660904
2034980699,1977233,-99402,3198941,-5355628,3128391,-6584971,-7436281,-7905272,-7654561
2034980700,1977234,-114332,3180483,-5353198,3130185,-6581769,-7434167,-7897172,-7648316
2034980701,1977235,-133254,3155538,-5349764,3131899,-6577350,-7431573,-7888959,-7640891
2034980702,1977236,-149423,3143181,-5346479,3136717,-6572989,-7428931,-7880904,-7633562
2034980703,1977237,-158249,3135397,-5344019,3145561,-6569597,-7426569,-7873416,-7627326
2034980704,1977238,-160594,3131333,-5342876,3156074,-6567765,-7425037,-7867119,-7622981
2034980705,1977239,-158374,3133514,-5342533,3166045,-6567068,-7424208,-7861976,-7620168
2034980706,1977240,-134993,3149988,-5342948,3184389,-6567492,-7424392,-7861612,-7620839
2034980707,1977241,-80672,3185258,-5343956,3220724,-6569197,-7426112,-7872088,-7627987
2034980708,1977242,-58217,3197109,-5345004,3228134,-6570894,-7427795,-7881877,-7634298
2034980709,1977243,-48448,3205631,-5346346,3223729,-6572851,-7429387,-7888855,-7639059
2034980710,1977244,-31767,3224424,-5348555,3220897,-6576111,-7431280,-7895470,-7644478
2034980711,1977245,-10250,3252032,-5352122,3218076,-6581039,-7434007,-7902799,-7651594
2034980712,1977246,8489,3278024,-5355326,3212666,-6585726,-7436624,-7910009,-7658613
2034980713,1977247,19197,3294583,-5357407,3206650,-6589047,-7438676,-7916510,-7664339
2034980714,1977248,21198,3299986,-5358744,3202345,-6591065,-7440266,-7922284,-7668626
2034980715,1977249,18031,3298282,-5359059,3197339,-6591808,-7441081,-7926962,-7671409
2034980716,1977250,9128,3289373,-5358939,3190339,-6591841,-7441577,-7930701,-7673112
2034980717,1977251,-30393,3250881,-5357879,3162298,-6590218,-7440494,-7926925,-7669749
2034980718,1977252,-83760,3208483,-5356499,3128054,-6587692,-7438192,-7914046,-7661269
2034980719,1977253,-100724,3194898,-5355281,3125936,-6585697,-7436558,-7904806,-7655371
2034980720,1977254,-115531,3176629,-5352866,3127634,-6582513,-7434446,-7896823,-7649219
2034980721,1977255,-134426,3153726,-5349387,3129228,-6578054,-7431803,-7888655,-7641815
2034980722,1977256,-150499,3142909,-5346098,3134202,-6573687,-7429156,-7880666,-7634512
2034980723,1977257,-159343,3132550,-5343722,3143053,-6570394,-7426907,-7873324,-7628392
2034980724,1977258,-161784,3128270,-5342545,3153589,-6568532,-7425376,-7867045,-7624051
2034980725,1977259,-159686,3130283,-5342066,3163153,-6567667,-7424390,-7861749,-7621067
2034980726,1977260,-137175,3145878,-5342501,3181183,-6568071,-7424558,-7861224,-7621631
2034980727,1977261,-82923,3181104,-5343653,3217664,-6569953,-7426452,-7871748,-7628891
2034980728,1977262,-59632,3193721,-5344555,3225731,-6571513,-7428017,-7881514,-7635143
2034980729,1977263,-49860,3202151,-5345719,3221323,-6573283,-7429446,-7888350,-7639744
2034980730,1977264,-33247,3220782,-5347936,3218539,-6576540,-7431348,-7895007,-7645161
2034980731,1977265,-11702,3248338,-5351402,3215815,-6581364,-7433974,-7902250,-7652174
2034980732,1977266,7189,3274528,-5354631,3210531,-6586086,-7436614,-7909482,-7659215
2034980733,1977267,18126,3291424,-5356609,3204400,-6589316,-7438557,-7915881,-7664859
2034980734,1977268,20534,3297311,-5357956,3199433,-6591342,-7440148,-7921661,-7669169
2034980735,1977269,17573,3295958,-5358411,3194774,-6592239,-7441103,-7926491,-7672109
2034980736,1977270,9609,3287999,-5358121,3188458,-6592117,-7441450,-7930211,-7673741
2034980737,1977271,-25214,3254107,-5357191,3163966,-6590704,-7440640,-7927763,-7671198
2034980738,1977272,-81116,3209256,-5355970,3127304,-6588324,-7438506,-7915281,-7662929
2034980739,1977273,-100636,3193179,-5354661,3123117,-6586192,-7436711,-7905464,-7656632
2034980740,1977274,-115407,3175064,-5352511,3124912,-6583270,-7434831,-7897609,-7650677
2034980741,1977275,-134291,3152231,-5348965,3126574,-6578754,-7432117,-7889302,-7643166
2034980742,1977276,-150549,3141247,-5345473,3131496,-6574181,-7429292,-7881075,-7635634
2034980743,1977277,-159556,3130638,-5343003,3140361,-6570771,-7426959,-7873604,-7629389
2034980744,1977278,-162200,3126166,-5341716,3150814,-6568803,-7425319,-7867186,-7624901
2034980745,1977279,-159994,3128259,-5341262,3160526,-6567947,-7424360,-7861902,-7621931
2034980746,1977280,-136098,3145189,-5341662,3179705,-6568337,-7424524,-7861604,-7622612
2034980747,1977281,-81715,3180489,-5342654,3216207,-6570059,-7426284,-7872217,-7629827
2034980748,1977282,-59878,3191588,-5343808,3223093,-6571849,-7428064,-7882026,-7636179
2034980749,1977283,-50390,3199737,-5344903,3218644,-6573536,-7429409,-7888730,-7640671
2034980750,1977284,-34045,3217983,-5347132,3215733,-6576804,-7431353,-7895372,-7646076
2034980751,1977285,-12502,3245472,-5350666,3213073,-6581692,-7434056,-7902642,-7653116
2034980752,1977286,6563,3271805,-5353978,3207851,-6586479,-7436751,-7909897,-7660213
2034980753,1977287,17628,3288833,-5356131,3201926,-6589901,-7438853,-7916446,-7666033
2034980754,1977288,19878,3294608,-5357561,3197634,-6592034,-7440539,-7922312,-7670438
2034980755,1977289,16827,3293119,-5357993,3192649,-6592886,-7441444,-7927095,-7673334
2034980756,1977290,8677,3284978,-5357601,3186072,-6592669,-7441686,-7930648,-7674841
2034980757,1977291,-27936,3249355,-5356609,3160106,-6591176,-7440753,-7927677,-7671969
2034980758,1977292,-83004,3205333,-5355283,3124250,-6588696,-7438500,-7914981,-7663577
2034980759,1977293,-101401,3190367,-5353936,3120923,-6586554,-7436701,-7905324,-7657386
2034980760,1977294,-115952,3172503,-5351574,3122732,-6583429,-7434608,-7897299,-7651268
2034980761,1977295,-134778,3149751,-5348157,3124337,-6579045,-7432010,-7889155,-7643917
2034980762,1977296,-151058,3138655,-5344849,3129177,-6574662,-7429384,-7881156,-7636584
2034980763,1977297,-160287,3127903,-5342429,3137884,-6571303,-7427117,-7873751,-7630401
2034980764,1977298,-163121,3123230,-5341182,3148196,-6569356,-7425514,-7867384,-7625939
2034980765,1977299,-161204,3125040,-5340644,3157714,-6568437,-7424490,-7862025,-7622892
2034980766,1977300,-139086,3140562,-5341031,3175567,-6568792,-7424604,-7861354,-7623337
2034980767,1977301,-84646,3179216,-5342029,3212391,-6570511,-7426333,-7871658,-7630406
2034980768,1977302,-61049,3189981,-5343002,3220850,-6572120,-7427952,-7881522,-7636719
2034980769,1977303,-51514,3197306,-5344277,3216401,-6573996,-7429500,-7888487,-7641435
2034980770,1977304,-35256,3215403,-5346424,3213517,-6577169,-7431374,-7895079,-7646749
2034980771,1977305,-13798,3242772,-5349827,3210854,-6581917,-7433942,-7902236,-7653664
2034980772,1977306,5343,3269172,-5353187,3205661,-6586745,-7436672,-7909543,-7660816
2034980773,1977307,16573,3286441,-5355520,3199566,-6590356,-7438952,-7916277,-7666829
2034980774,1977308,19176,3292593,-5356771,3194536,-6592307,-7440443,-7921955,-7671062
2034980775,1977309,16371,3291409,-5357018,3189827,-6593001,-7441187,-7926582,-7673811
2034980776,1977310,8798,3284002,-5356767,3183711,-6592953,-7441564,-7930420,-7675547
2035064614,1977311,-23500,3251900,-5355937,3161026,-6591689,-7440912,-7928719,-7673483
2035064615,1977312,-80632,3204934,-5354611,3123009,-6589202,-7438695,-7916359,-7665208
2035064616,1977313,-101803,3188624,-5353328,3117456,-6587082,-7436893,-7906266,-7658749
2035064617,1977314,-116242,3170904,-5351039,3119380,-6584041,-7434851,-7898193,-7652650
2035064618,1977315,-135085,3147115,-5347591,3120989,-6579625,-7432224,-7889948,-7645239
2035064619,1977316,-151591,3135392,-5344232,3125655,-6575174,-7429542,-7881835,-7637817
2035064620,1977317,-160914,3125566,-5341772,3134333,-6571764,-7427233,-7874368,-7631544
2035064621,1977318,-163772,3120754,-5340525,3144744,-6569813,-7425647,-7867977,-7627064
2035064622,1977319,-162115,3122442,-5340202,3154676,-6569093,-7424817,-7862763,-7624171
2035064623,1977320,-142009,3137434,-5340426,3171716,-6569250,-7424729,-7861446,-7624177
2035064624,1977321,-87489,3173461,-5341336,3208759,-6570846,-7426318,-7871277,-7630954
2035064625,1977322,-62030,3186481,-5342442,3218668,-6572622,-7428109,-7881536,-7637589
2035064626,1977323,-52516,3194253,-5343434,3214243,-6574206,-7429381,-7888294,-7642067
2035064627,1977324,-36492,3211995,-5345617,3211235,-6577402,-7431321,-7894976,-7647435
2035064628,1977325,-15043,3239273,-5349015,3208616,-6582128,-7433884,-7902141,-7654334
2035064629,1977326,4223,3265784,-5352295,3203417,-6586882,-7436516,-7909367,-7661404
2035064630,1977327,15783,3283362,-5354684,3197052,-6590576,-7438859,-7916171,-7667505
2035064631,1977328,18570,3289746,-5355993,3192599,-6592621,-7440413,-7921934,-7671832
2035064632,1977329,15678,3288537,-5356535,3187751,-6593594,-7441426,-7926849,-7674878
2035064633,1977330,8178,3281116,-5356348,3181591,-6593597,-7441867,-7930744,-7676666
2035064634,1977331,-24618,3248503,-5355616,3158442,-6592431,-7441294,-7929006,-7674630
2035064635,1977332,-81558,3201666,-5354139,3120678,-6589815,-7438932,-7916434,-7666187
2035064636,1977333,-102225,3185809,-5352736,3115431,-6587574,-7437009,-7906295,-7659659
2035064637,1977334,-116556,3168452,-5350512,3117337,-6584597,-7435016,-7898292,-7653656
2035064638,1977335,-135368,3144773,-5347055,3118893,-6580177,-7432373,-7890051,-7646251
2035064639,1977336,-152046,3132881,-5343621,3123426,-6575653,-7429617,-7881897,-7638762
2035064640,1977337,-161689,3122746,-5341286,3131905,-6572381,-7427466,-7874589,-7632640
2035064641,1977338,-164678,3117763,-5339981,3142339,-6570369,-7425830,-7868150,-7628089
2035064642,1977339,-163122,3119272,-5339521,3152158,-6569501,-7424855,-7862793,-7625045
2035064643,1977340,-143970,3133314,-5339761,3168486,-6569663,-7424769,-7861337,-7624963
2035064644,1977341,-89821,3168968,-5340737,3205381,-6571318,-7426425,-7871053,-7631698
2035064645,1977342,-63423,3182881,-5341649,3216051,-6572912,-7428036,-7881231,-7638216
2035064646,1977343,-53887,3190597,-5342736,3211674,-6574582,-7429416,-7888126,-7642816
2035064647,1977344,-37997,3208083,-5344970,3208690,-6577819,-7431416,-7894886,-7648239
2035064648,1977345,-16544,3235234,-5348317,3206071,-6582511,-7433936,-7902016,-7655084
2035064649,1977346,2902,3261898,-5351706,3200981,-6587376,-7436664,-7909352,-7662257
2035064650,1977347,14691,3279782,-5353997,3194616,-6590962,-7438894,-7916041,-7668257
2035064651,1977348,17873,3286598,-5355302,3189475,-6592987,-7440425,-7921774,-7672576
2035064652,1977349,15291,3285644,-5355757,3184862,-6593899,-7441364,-7926621,-7675548
2035064653,1977350,8068,3278580,-5355534,3178968,-6593876,-7441769,-7930519,-7677342
2035064654,1977351,-22555,3248206,-5354709,3157463,-6592658,-7441164,-7929201,-7675516
2035064655,1977352,-80081,3200924,-5353268,3119003,-6590068,-7438853,-7916924,-7667226
2035064656,1977353,-102317,3183564,-5351908,3112494,-6587854,-7436948,-7906574,-7660591
2035064657,1977354,-116491,3166412,-5349648,3114516,-6584836,-7434888,-7898463,-7654511
2035064658,1977355,-135162,3142913,-5346368,3116065,-6580608,-7432412,-7890367,-7647279
2035064659,1977356,-151912,3130964,-5342980,3120546,-6576136,-7429723,-7882249,-7639841
2035064660,1977357,-161569,3120693,-5340533,3129068,-6572724,-7427462,-7874812,-7633574
2035064661,1977358,-164698,3115496,-5339281,3139457,-6570753,-7425888,-7868418,-7629061
2035064662,1977359,-163076,3116995,-5338809,3149463,-6569884,-7424927,-7863064,-7625988
2035064663,1977360,-142782,3132138,-5338929,3166759,-6569944,-7424745,-7861721,-7625905
2035064664,1977361,-88336,3168111,-5339880,3203767,-6571570,-7426392,-7871669,-7632761
2035064665,1977362,-63376,3180506,-5341057,3213284,-6573404,-7428246,-7881917,-7639401
2035064666,1977363,-54074,3187974,-5342074,3208863,-6575005,-7429551,-7888684,-7643893
2035064667,1977364,-38436,3205206,-5344227,3205831,-6578143,-7431475,-7895329,-7649191
2035118561,1977365,-17048,3232269,-5347624,3203249,-6582869,-7434054,-7902478,-7656056
2035118562,1977366,2485,3259031,-5350998,3198181,-6587718,-7436768,-7909756,-7663207
2035118563,1977367,14351,3277069,-5353377,3191719,-6591401,-7439059,-7916507,-7669291
2035118564,1977368,17575,3283973,-5354731,3186516,-6593486,-7440619,-7922274,-7673653
2035118565,1977369,15026,3283186,-5355197,3181899,-6594421,-7441572,-7927122,-7676649
2035118566,1977370,7728,3276089,-5355092,3175844,-6594518,-7442084,-7931103,-7678550
2035118567,1977371,-24776,3243869,-5354215,3152799,-6593226,-7441381,-7929294,-7676426
2035118568,1977372,-81878,3197026,-5352813,3114766,-6590679,-7439085,-7916830,-7668078
2035118569,1977373,-102716,3181084,-5351377,3109362,-6588409,-7437120,-7906639,-7661518
2035118570,1977374,-116918,3163974,-5349267,3111184,-6585549,-7435196,-7898722,-7655641
2035118571,1977375,-135659,3140503,-5345830,3112628,-6581162,-7432562,-7890517,-7648292
2035118572,1977376,-152551,3128398,-5342432,3116996,-6576689,-7429874,-7882427,-7640856
2035118573,1977377,-162439,3117868,-5340049,3125372,-6573347,-7427694,-7875092,-7634661
2035118574,1977378,-165740,3112412,-5338723,3135644,-6571304,-7426057,-7868652,-7630070
2035118575,1977379,-164453,3113548,-5338141,3145699,-6570309,-7424975,-7863162,-7626877
2035118576,1977380,-146978,3125898,-5338249,3161479,-6570346,-7424754,-7861254,-7626480
2035118577,1977381,-93429,3160967,-5339259,3198182,-6571969,-7426361,-7870564,-7633015
2035118578,1977382,-65201,3176679,-5340231,3210403,-6573622,-7428054,-7881007,-7639717
2035118579,1977383,-55698,3184334,-5341437,3206118,-6575413,-7429576,-7888114,-7644483
2035118580,1977384,-40224,3201263,-5343475,3202989,-6578443,-7431407,-7894737,-7649703
2035118581,1977385,-18961,3228074,-5346865,3200404,-6583158,-7433984,-7901929,-7656580
2035118582,1977386,630,3254881,-5350260,3195431,-6588018,-7436722,-7909255,-7663761
2035118583,1977387,12728,3273163,-5352691,3189158,-6591774,-7439054,-7916070,-7669919
2035118584,1977388,16134,3280379,-5353934,3184055,-6593753,-7440506,-7921751,-7674197
2035118585,1977389,13608,3279650,-5354399,3179429,-6594687,-7441454,-7926608,-7677203
2035118586,1977390,6560,3272894,-5354311,3173494,-6594819,-7441991,-7930651,-7679160
2035118587,1977391,-24035,3242619,-5353451,3151857,-6593573,-7441352,-7929305,-7677321
2035118588,1977392,-81611,3195300,-5351986,3113326,-6590970,-7439010,-7917016,-7669010
2035118589,1977393,-103765,3178060,-5350745,3106894,-6588874,-7437215,-7906795,-7662512
2035118590,1977394,-117799,3161263,-5348670,3108806,-6586049,-7435316,-7898851,-7656644
2035118591,1977395,-136436,3137976,-5345239,3110286,-6581673,-7432687,-7890617,-7649299
2035118592,1977396,-153381,3125823,-5341783,3114646,-6577137,-7429952,-7882475,-7641801
2035118593,1977397,-163432,3115124,-5339199,3123051,-6573592,-7427581,-7874939,-7635392
2035118594,1977398,-166888,3109501,-5338026,3133317,-6571689,-7426107,-7868642,-7630944
2035118595,1977399,-165710,3110544,-5337522,3143418,-6570764,-7425109,-7863220,-7627814
2035118596,1977400,-148614,3122670,-5337664,3158929,-6570825,-7424924,-7861286,-7627393
2035118597,1977401,-95249,3160766,-5338639,3195591,-6572421,-7426492,-7870440,-7633826
2035118598,1977402,-66497,3175468,-5339611,3208361,-6574073,-7428185,-7880928,-7640561
2035118599,1977403,-57113,3181807,-5340811,3204019,-6575854,-7429706,-7888056,-7645333
2035118600,1977404,-41870,3198501,-5342919,3200898,-6578930,-7431629,-7894763,-7650617
2035118601,1977405,-20614,3225276,-5346264,3198381,-6583589,-7434156,-7901909,-7657431
2035118602,1977406,-847,3252276,-5349595,3193462,-6588377,-7436788,-7909136,-7664531
2035118603,1977407,11408,3270791,-5352058,3187230,-6592167,-7439146,-7915971,-7670729
2035118604,1977408,14874,3278144,-5353436,3182052,-6594331,-7440751,-7921808,-7675189
2035118605,1977409,12543,3277651,-5353727,3177424,-6595093,-7441519,-7926489,-7678027
2035118606,1977410,5828,3271211,-5353607,3171686,-6595192,-7442024,-7930529,-7679974
2035118607,1977411,-22470,3242581,-5352924,3151833,-6594172,-7441612,-7929903,-7678634
2035118608,1977412,-80533,3193509,-5351539,3112561,-6591656,-7439379,-7918004,-7670551
2035118609,1977413,-104664,3175731,-5350249,3104402,-6589494,-7437491,-7907437,-7663790
2035118610,1977414,-118614,3159138,-5348054,3106360,-6586555,-7435463,-7899295,-7657776
2035118611,1977415,-137224,3135133,-5344757,3107824,-6582319,-7432963,-7891162,-7650558
2035118612,1977416,-154321,3121932,-5341272,3112030,-6577749,-7430194,-7882975,-7643017
2035118613,1977417,-164521,3112363,-5338772,3120293,-6574280,-7427927,-7875507,-7636675
2035118614,1977418,-168093,3106578,-5337319,3130494,-6572090,-7426173,-7868915,-7631924
2035118615,1977419,-166825,3107659,-5336671,3140289,-6571021,-7425031,-7863320,-7628622
2035118616,1977420,-150205,3120774,-5336852,3154881,-6571086,-7424846,-7861250,-7628128
2035118617,1977421,-96717,3156726,-5337786,3191713,-6572647,-7426377,-7870252,-7634461
2035118618,1977422,-67295,3171968,-5338772,3205045,-6574328,-7428098,-7880842,-7641266
2035118619,1977423,-57907,3178972,-5340041,3200767,-6576156,-7429682,-7888047,-7646104
2035118620,1977424,-42764,3195337,-5341929,3197661,-6579018,-7431408,-7894560,-7651169
2035178502,1977425,-21547,3221931,-5345222,3195216,-6583621,-7433901,-7901652,-7657914
2035178503,1977426,-1719,3248957,-5348701,3190391,-6588556,-7436680,-7909020,-7665148
2035178504,1977427,10771,3267684,-5351172,3184219,-6592358,-7439025,-7915842,-7671357
2035178505,1977428,14477,3275260,-5352545,3179093,-6594509,-7440596,-7921646,-7675806
2035178506,1977429,12168,3274735,-5353017,3174501,-6595464,-7441550,-7926532,-7678850
2035178507,1977430,5537,3268464,-5352972,3168762,-6595649,-7442132,-7930667,-7680891
2035178508,1977431,-22108,3240566,-5352177,3149375,-6594521,-7441628,-7930052,-7679503
2035178509,1977432,-80243,3191462,-5350970,3109974,-6592197,-7439587,-7918442,-7671662
2035178510,1977433,-104853,3173277,-5349565,3101377,-6589908,-7437580,-7907684,-7664760
2035178511,1977434,-118731,3156896,-5347428,3103353,-6587021,-7435576,-7899566,-7658798
2035178512,1977435,-137290,3133041,-5344002,3104786,-6582666,-7432937,-7891294,-7651446
2035178513,1977436,-154539,3119711,-5340616,3108858,-6578191,-7430278,-7883207,-7644001
2035178514,1977437,-164919,3109896,-5338011,3117064,-6574611,-7427919,-7875651,-7637553
2035178515,1977438,-168642,3103924,-5336701,3127293,-6572557,-7426323,-7869206,-7632926
2035178516,1977439,-167599,3104811,-5336132,3137409,-6571545,-7425240,-7863666,-7629672
2035178517,1977440,-152070,3116868,-5336219,3151789,-6571511,-7424959,-7861314,-7628970
2035178518,1977441,-99206,3152247,-5337321,3188336,-6573213,-7426635,-7870201,-7635319
2035178519,1977442,-68651,3168614,-5338181,3202644,-6574776,-7428238,-7880785,-7642089
2035178520,1977443,-59257,3175698,-5339289,3198450,-6576457,-7429666,-7887892,-7646795
2035178521,1977444,-44319,3191799,-5341192,3195180,-6579316,-7431417,-7894444,-7651873
2035178522,1977445,-23164,3218219,-5344541,3192609,-6583969,-7433972,-7901612,-7658684
2035178523,1977446,-3196,3245431,-5348020,3187833,-6588911,-7436754,-7908973,-7665927
2035178524,1977447,9565,3264508,-5350607,3181378,-6592844,-7439204,-7915909,-7672257
2035178525,1977448,13421,3272324,-5352056,3176793,-6595074,-7440852,-7921801,-7676796
2035178526,1977449,11074,3271851,-5352620,3172081,-6596122,-7441883,-7926775,-7679947
2035178527,1977450,4324,3265472,-5352582,3166126,-6596331,-7442479,-7930907,-7682002
2035178528,1977451,-24775,3236091,-5351527,3145533,-6594926,-7441668,-7929695,-7680169
2035178529,1977452,-82737,3187223,-5350141,3106422,-6592411,-7439429,-7917691,-7672051
2035178530,1977453,-106075,3170314,-5348901,3098866,-6590301,-7437603,-7907301,-7665441
2035178531,1977454,-119757,3154149,-5347013,3100788,-6587677,-7435846,-7899477,-7659780
2035178532,1977455,-138246,3130376,-5343557,3102121,-6583301,-7433174,-7891215,-7652444
2035178533,1977456,-155545,3116924,-5340151,3106097,-6578807,-7430503,-7883153,-7645016
2035178534,1977457,-166034,3106989,-5337561,3114238,-6575244,-7428171,-7875651,-7638577
2035178535,1977458,-169862,3100854,-5336071,3124451,-6573007,-7426406,-7869044,-7633764
2035178536,1977459,-168971,3101500,-5335401,3134757,-6571907,-7425259,-7863439,-7630426
2035178537,1977460,-153664,3113243,-5335461,3149031,-6571869,-7424960,-7861058,-7629686
2035178538,1977461,-100744,3148635,-5336442,3185398,-6573420,-7426476,-7869742,-7635859
2035178539,1977462,-70021,3165111,-5337524,3199903,-6575200,-7428297,-7880579,-7642861
2035178540,1977463,-60643,3172033,-5338534,3195655,-6576776,-7429649,-7887608,-7647491
2035178541,1977464,-45967,3187812,-5340602,3192351,-6579791,-7431582,-7894336,-7652727
2035178542,1977465,-24972,3214050,-5343951,3189833,-6584430,-7434147,-7901506,-7659505
2035178543,1977466,-4876,3241295,-5347269,3185106,-6589217,-7436758,-7908702,-7666591
2035178544,1977467,8081,3260572,-5349825,3178661,-6593121,-7439169,-7915584,-7672888
2035178545,1977468,12108,3268548,-5351328,3174175,-6595422,-7440868,-7921531,-7677504
2035178546,1977469,9886,3268235,-5351944,3169526,-6596517,-7441932,-7926551,-7680696
2035178547,1977470,3369,3262114,-5351712,3163694,-6596534,-7442320,-7930498,-7682567
2035178548,1977471,-24607,3233969,-5350805,3143991,-6595304,-7441696,-7929702,-7681052
2035178549,1977472,-82746,3184933,-5349576,3104626,-6592963,-7439636,-7918047,-7673177
2035178550,1977473,-107037,3167071,-5348351,3096209,-6590860,-7437803,-7907517,-7666487
2035178551,1977474,-120614,3151199,-5346293,3098154,-6588056,-7435852,-7899484,-7660650
2035178552,1977475,-139045,3127606,-5343069,3099488,-6583909,-7433405,-7891435,-7653560
2035178553,1977476,-156478,3114115,-5339551,3103421,-6579320,-7430651,-7883269,-7646019
2035178554,1977477,-167148,3104023,-5336854,3111581,-6575646,-7428221,-7875652,-7639462
2035178555,1977478,-171129,3097670,-5335402,3121729,-6573442,-7426507,-7869092,-7634680
2035178556,1977479,-170343,3098206,-5334792,3131963,-6572389,-7425412,-7863531,-7631377
2035178557,1977480,-156171,3108916,-5334856,3145385,-6572337,-7425107,-7860926,-7630513
2035178558,1977481,-104219,3146311,-5335970,3181158,-6573993,-7426721,-7869306,-7636574
2035178559,1977482,-71517,3164068,-5336857,3197440,-6575577,-7428356,-7880110,-7643492
2035178560,1977483,-61926,3169541,-5337777,3193378,-6577054,-7429625,-7887135,-7648081
2035178561,1977484,-47370,3185000,-5339778,3189984,-6579993,-7431511,-7893860,-7653261
2035178562,1977485,-26392,3211142,-5343062,3187456,-6584574,-7434019,-7900977,-7659982
2035178563,1977486,-6221,3238584,-5346459,3182799,-6589432,-7436694,-7908249,-7667137
2035178564,1977487,6833,3258062,-5348989,3176338,-6593333,-7439088,-7915132,-7673454
2035178565,1977488,11148,3266345,-5350391,3171069,-6595515,-7440649,-7920968,-7677962
2035178566,1977489,9135,3266264,-5351024,3166432,-6596651,-7441744,-7926020,-7681199
2035178567,1977490,2866,3260460,-5351066,3160791,-6596952,-7442407,-7930279,-7683369
2035178568,1977491,-22887,3234531,-5350397,3142692,-6595997,-7442079,-7930233,-7682381
2035178569,1977492,-81077,3185462,-5348810,3103035,-6593312,-7439696,-7918577,-7674327
2035178570,1977493,-107429,3165604,-5347608,3093004,-6591209,-7437849,-7907779,-7667479
2035178571,1977494,-121001,3149808,-5345597,3095002,-6588461,-7435936,-7899704,-7661649
2035178572,1977495,-139336,3126419,-5342252,3096384,-6584194,-7433347,-7891488,-7654411
2035178573,1977496,-156856,3112869,-5338706,3100211,-6579569,-7430545,-7883267,-7646827
2035178574,1977497,-167711,3102523,-5336120,3108132,-6576007,-7428239,-7875760,-7640373
2035178575,1977498,-171805,3096029,-5334705,3118317,-6573826,-7426564,-7869223,-7635601
2035178576,1977499,-171040,3096433,-5334132,3128609,-6572802,-7425509,-7863684,-7632316
2035178577,1977500,-156946,3106883,-5334124,3141963,-6572700,-7425162,-7860999,-7631377
2035178578,1977501,-105122,3141100,-5335165,3177563,-6574267,-7426686,-7869284,-7637342
2035178579,1977502,-72558,3159367,-5336444,3193672,-6576248,-7428710,-7880482,-7644645
2035178580,1977503,-63133,3166272,-5337337,3189603,-6577703,-7429956,-7887477,-7649199
2035178581,1977504,-48784,3181524,-5339147,3186251,-6580434,-7431666,-7893992,-7654176
2035178582,1977505,-27851,3207550,-5342368,3183823,-6584947,-7434122,-7901054,-7660814
2035178583,1977506,-7545,3234999,-5345841,3179299,-6589892,-7436867,-7908389,-7668040
2035178584,1977507,5651,3254617,-5348426,3173405,-6593828,-7439274,-7915281,-7674374
2035178585,1977508,9947,3263013,-5349913,3168479,-6596122,-7440926,-7921191,-7678985
2035178586,1977509,7896,3262958,-5350471,3163859,-6597179,-7441949,-7926171,-7682147
2035178587,1977510,1789,3257227,-5350297,3158218,-6597264,-7442396,-7930216,-7684113
2035178588,1977511,-23986,3231294,-5349596,3140030,-6596284,-7442026,-7930127,-7683106
2035178589,1977512,-82222,3182161,-5348277,3100279,-6593875,-7439914,-7918732,-7675326
2035178590,1977513,-108396,3162482,-5347072,3090380,-6591765,-7438066,-7907951,-7668480
2035178591,1977514,-121735,3146980,-5345055,3092496,-6589016,-7436120,-7899845,-7662652
2035268415,1977515,-140034,3123601,-5341831,3093782,-6584888,-7433657,-7891768,-7655566
2035268416,1977516,-157612,3109988,-5338329,3097586,-6580301,-7430899,-7883600,-7648027
2035268417,1977517,-168561,3099510,-5335535,3105631,-6576513,-7428403,-7875902,-7641356
2035268418,1977518,-172757,3092828,-5334039,3115836,-6574242,-7426662,-7869291,-7636499
2035268419,1977519,-172087,3093103,-5333404,3126098,-6573157,-7425554,-7863696,-7633151
2035268420,1977520,-158217,3103383,-5333551,3139438,-6573199,-7425355,-7861131,-7632334
2035268421,1977521,-106411,3140489,-5334603,3175206,-6574770,-7426881,-7869332,-7638250
2035268422,1977522,-73314,3158558,-5335509,3191860,-6576372,-7428534,-7880185,-7645191
2035268423,1977523,-63862,3163862,-5336432,3187811,-6577849,-7429814,-7887224,-7649783
2035268424,1977524,-49641,3178891,-5338297,3184431,-6580627,-7431584,-7893816,-7654807
2035268425,1977525,-28851,3204732,-5341623,3181974,-6585233,-7434147,-7900973,-7661539
2035268426,1977526,-8514,3232256,-5345282,3177429,-6590357,-7437076,-7908481,-7668946
2035268427,1977527,4934,3252172,-5347902,3171210,-6594360,-7439530,-7915423,-7675349
2035268428,1977528,9397,3260772,-5349448,3166739,-6596719,-7441231,-7921387,-7680025
2035268429,1977529,7412,3260755,-5349964,3161993,-6597720,-7442186,-7926294,-7683136
2035268430,1977530,1474,3255278,-5349838,3156274,-6597870,-7442671,-7930398,-7685165
2035268431,1977531,-22909,3230768,-5349137,3139077,-6596930,-7442350,-7930627,-7684358
2035268432,1977532,-81041,3181784,-5347639,3099226,-6594349,-7440081,-7919376,-7676550
2035268433,1977533,-108819,3160554,-5346402,3087950,-6592187,-7438182,-7908362,-7669542
2035268434,1977534,-122146,3145131,-5344593,3089993,-6589652,-7436422,-7900403,-7663894
2035268435,1977535,-140434,3121956,-5341264,3091246,-6585424,-7433832,-7892180,-7656687
2035268436,1977536,-158246,3108157,-5337699,3094898,-6580775,-7431037,-7883941,-7649081
2035268437,1977537,-169482,3097368,-5335028,3102743,-6577115,-7428671,-7876357,-7642532
2035268438,1977538,-173894,3090419,-5333465,3112772,-6574775,-7426862,-7869678,-7637583
2035268439,1977539,-173431,3090490,-5332854,3123103,-6573702,-7425773,-7864085,-7634227
2035268440,1977540,-160607,3101103,-5332882,3136479,-6573584,-7425419,-7861183,-7633146
2035268441,1977541,-109325,3136189,-5333824,3171984,-6575051,-7426832,-7869071,-7638852
2035268442,1977542,-75294,3154410,-5335032,3189364,-6576971,-7428806,-7880336,-7646188
2035268443,1977543,-65822,3160624,-5335994,3185313,-6578479,-7430132,-7887467,-7650844
2035268444,1977544,-51865,3175309,-5337704,3181843,-6581106,-7431776,-7893941,-7655722
2035268445,1977545,-31212,3200929,-5340796,3179365,-6585469,-7434119,-7900872,-7662202
2035268446,1977546,-10729,3228517,-5344339,3174934,-6590471,-7436914,-7908246,-7669479
2035268447,1977547,2914,3248628,-5346998,3168686,-6594514,-7439377,-7915212,-7675921
2035268448,1977548,7664,3257579,-5348628,3163441,-6596971,-7441151,-7921260,-7680699
2035268449,1977549,5911,3257907,-5349090,3158924,-6597936,-7442063,-7926134,-7683781
2035268450,1977550,44,3252568,-5349047,3153375,-6598175,-7442632,-7930326,-7685904
2035268451,1977551,-23954,3228494,-5348301,3136429,-6597188,-7442269,-7930582,-7685089
2035268452,1977552,-81897,3179699,-5346898,3096586,-6594707,-7440102,-7919487,-7677417
2035268453,1977553,-109856,3158253,-5345663,3085066,-6592549,-7438195,-7908434,-7670396
2035268454,1977554,-123134,3143026,-5343831,3087140,-6590001,-7436400,-7900435,-7664732
2035268455,1977555,-141291,3119983,-5340668,3088411,-6585941,-7433984,-7892392,-7657711
2035268456,1977556,-159029,3106162,-5337205,3091991,-6581389,-7431299,-7884263,-7650214
2035268457,1977557,-170399,3095189,-5334442,3099814,-6577631,-7428859,-7876597,-7643556
2035268458,1977558,-175017,3088014,-5332841,3109859,-6575248,-7427026,-7869883,-7638562
2035268459,1977559,-174684,3087934,-5332211,3120259,-6574136,-7425907,-7864257,-7635169
2035268460,1977560,-162351,3097995,-5332243,3133253,-6574000,-7425529,-7861262,-7634022
2035268461,1977561,-111758,3132380,-5333127,3168324,-6575398,-7426876,-7868868,-7639546
2035268462,1977562,-76853,3151491,-5334116,3186586,-6577114,-7428650,-7879987,-7646711
2035268463,1977563,-67207,3157824,-5335194,3182725,-6578739,-7430086,-7887281,-7651499
2035268464,1977564,-53389,3172332,-5336926,3179205,-6581371,-7431766,-7893798,-7656416
2035268465,1977565,-32726,3197835,-5340149,3176788,-6585865,-7434262,-7900870,-7663030
2035268466,1977566,-12129,3225509,-5343617,3172397,-6590784,-7436962,-7908162,-7670217
2035268467,1977567,1661,3245869,-5346180,3166188,-6594738,-7439324,-7915021,-7676562
2035268468,1977568,6578,3255058,-5347624,3161036,-6597016,-7440906,-7920880,-7681167
2035268469,1977569,4833,3255472,-5348344,3156401,-6598259,-7442077,-7926023,-7684531
2035268470,1977570,-1009,3250213,-5348398,3150808,-6598610,-7442752,-7930331,-7686773
2035268471,1977571,-24233,3226534,-5347726,3134516,-6597706,-7442466,-7930849,-7686139
2035268472,1977572,-82246,3176193,-5346353,3094571,-6595264,-7440354,-7919980,-7678600
2035268473,1977573,-111147,3155208,-5345096,3082221,-6593066,-7438401,-7908776,-7671472
2035268474,1977574,-124379,3140288,-5343230,3084248,-6590472,-7436554,-7900701,-7665754
2035268475,1977575,-142516,3116827,-5340067,3085429,-6586431,-7434130,-7892634,-7658741
2035268476,1977576,-160410,3101663,-5336521,3088889,-6581808,-7431356,-7884431,-7651158
2035268477,1977577,-171934,3091897,-5333727,3096555,-6578012,-7428886,-7876744,-7644463
2035268478,1977578,-176594,3084778,-5331987,3106610,-6575489,-7426933,-7869893,-7639329
2035268479,1977579,-176237,3084713,-5331432,3117003,-6574441,-7425887,-7864322,-7635987
2035268480,1977580,-164949,3093780,-5331362,3129228,-6574224,-7425428,-7861053,-7634634
2035268481,1977581,-115644,3126881,-5332332,3163443,-6575666,-7426794,-7868242,-7639966
2035268482,1977582,-78936,3147734,-5333508,3183156,-6577567,-7428751,-7879702,-7647421
2035268483,1977583,-69111,3154241,-5334422,3179496,-6579033,-7430053,-7886930,-7652114
2035268484,1977584,-55439,3168466,-5336158,3175904,-6581652,-7431748,-7893489,-7657026
2035268485,1977585,-34921,3193760,-5339407,3173463,-6586164,-7434274,-7900630,-7663665
2035268486,1977586,-14316,3221542,-5342802,3169144,-6591026,-7436919,-7907854,-7670801
2035340346,1977587,-319,3242131,-5345339,3163029,-6594964,-7439239,-7914687,-7677141
2035340347,1977588,4692,3251478,-5346967,3157852,-6597431,-7440997,-7920736,-7681942
2035340348,1977589,3058,3251999,-5347699,3153269,-6598681,-7442165,-7925897,-7685317
2035340349,1977590,-2671,3246823,-5347696,3147676,-6598974,-7442766,-7930137,-7687504
2035340350,1977591,-26844,3222552,-5347026,3130518,-6598068,-7442467,-7930425,-7686752
2035340351,1977592,-84941,3173704,-5345675,3090605,-6595643,-7440357,-7919337,-7679124
2035340352,1977593,-112562,3152674,-5344354,3079321,-6593404,-7438370,-7908249,-7672054
2035340353,1977594,-125556,3137828,-5342521,3081489,-6590851,-7436542,-7900261,-7666416
2035340354,1977595,-143658,3115116,-5339346,3082702,-6586785,-7434092,-7892207,-7659418
2035340355,1977596,-161661,3101119,-5335984,3086138,-6582345,-7431530,-7884229,-7652050
2035340356,1977597,-173267,3089778,-5333066,3093806,-6578427,-7428961,-7876456,-7645248
2035340357,1977598,-178016,3082376,-5331407,3103852,-6575974,-7427098,-7869705,-7640173
2035340358,1977599,-177670,3082221,-5330772,3114300,-6574842,-7425974,-7864066,-7636755
2035340359,1977600,-166139,3091451,-5330774,3126766,-6574679,-7425590,-7860932,-7635511
2035340360,1977601,-116164,3127088,-5331558,3161547,-6575969,-7426812,-7868176,-7640775
2035340361,1977602,-80063,3148658,-5332723,3180859,-6577848,-7428761,-7879548,-7648152
2035340362,1977603,-70277,3152525,-5333765,3177203,-6579429,-7430181,-7886877,-7652960
2035340363,1977604,-56797,3166475,-5335567,3173634,-6582106,-7431949,-7893494,-7657923
2035340364,1977605,-36347,3191647,-5338585,3171206,-6586366,-7434231,-7900370,-7664296
2035340365,1977606,-15678,3219437,-5342052,3166901,-6591301,-7436935,-7907641,-7671482
2035340366,1977607,-1554,3240113,-5344753,3160826,-6595409,-7439419,-7914621,-7677977
2035340367,1977608,3669,3249682,-5346437,3155686,-6597933,-7441217,-7920719,-7682844
2035340368,1977609,2157,3250319,-5347164,3151083,-6599194,-7442381,-7925871,-7686230
2035340369,1977610,-3447,3245302,-5347189,3145517,-6599527,-7443018,-7930157,-7688454
2035340370,1977611,-25595,3222707,-5346572,3129848,-6598719,-7442825,-7930959,-7688031
2035340371,1977612,-83414,3172589,-5345227,3089897,-6596322,-7440764,-7920366,-7680666
2035340372,1977613,-113569,3150403,-5343714,3076567,-6593861,-7438546,-7908770,-7673191
2035340373,1977614,-126652,3135702,-5341987,3078656,-6591413,-7436805,-7900772,-7667607
2035340374,1977615,-144657,3112574,-5338901,3079836,-6587442,-7434428,-7892752,-7660680
2035340375,1977616,-162774,3097224,-5335284,3083119,-6582753,-7431604,-7884499,-7653044
2035340376,1977617,-174614,3087054,-5332523,3090661,-6578991,-7429200,-7876867,-7646382
2035340377,1977618,-179579,3079523,-5330842,3100576,-6576513,-7427320,-7870082,-7641274
2035340378,1977619,-179442,3079192,-5330031,3111081,-6575206,-7426033,-7864261,-7637659
2035340379,1977620,-169189,3087152,-5329946,3123468,-6574926,-7425512,-7860777,-7636154
2035340380,1977621,-121046,3121509,-5330919,3157065,-6576357,-7426856,-7867575,-7641256
2035340381,1977622,-82664,3144291,-5332082,3178225,-6578269,-7428837,-7879141,-7648801
2035340382,1977623,-72546,3148974,-5333139,3174876,-6579861,-7430279,-7886616,-7653689
2035340383,1977624,-59203,3162670,-5334874,3171204,-6582464,-7432013,-7893235,-7658609
2035340384,1977625,-38799,3187631,-5337811,3168811,-6586648,-7434253,-7900081,-7664916
2035340385,1977626,-18057,3215547,-5341423,3164613,-6591713,-7437077,-7907495,-7672237
2035340386,1977627,-3691,3236564,-5344171,3158277,-6595892,-7439615,-7914541,-7678806
2035340387,1977628,1706,3246359,-5345724,3153554,-6598313,-7441277,-7920514,-7683572
2035340388,1977629,238,3247076,-5346294,3149033,-6599414,-7442265,-7925509,-7686808
2035340389,1977630,-5197,3242272,-5346199,3143452,-6599608,-7442767,-7929679,-7688925
2035340390,1977631,-25597,3221424,-5345658,3129098,-6598904,-7442682,-7930919,-7688794
2035340391,1977632,-82547,3172199,-5344413,3089579,-6596639,-7440786,-7920930,-7681792
2035340392,1977633,-114846,3147893,-5343155,3074336,-6594409,-7438795,-7909334,-7674402
2035340393,1977634,-128000,3133243,-5341393,3076328,-6591926,-7436994,-7901186,-7668726
2035340394,1977635,-145893,3110319,-5338179,3077588,-6587825,-7434474,-7892997,-7661662
2035340395,1977636,-164078,3094886,-5334611,3080812,-6583189,-7431703,-7884781,-7654059
2035340396,1977637,-176056,3084498,-5331811,3088320,-6579372,-7429271,-7877102,-7647331
2035340397,1977638,-181045,3076837,-5330221,3098367,-6576974,-7427495,-7870397,-7642291
2035340398,1977639,-180931,3076351,-5329557,3108813,-6575808,-7426354,-7864698,-7638798
2035340399,1977640,-171322,3084666,-5329404,3120515,-6575457,-7425769,-7861002,-7637133
2035340400,1977641,-123702,3117815,-5330216,3154362,-6576699,-7426924,-7867382,-7641939
2035340401,1977642,-84393,3139899,-5331372,3176190,-6578600,-7428886,-7879024,-7649528
2035340402,1977643,-74189,3145853,-5332403,3172936,-6580177,-7430323,-7886520,-7654424
2035340403,1977644,-61011,3159391,-5333999,3169255,-6582629,-7431924,-7893027,-7659209
2035340404,1977645,-40768,3184123,-5337092,3166773,-6586963,-7434327,-7900032,-7665669
2035340405,1977646,-19880,3212050,-5340587,3162632,-6591910,-7437027,-7907330,-7672871
2035340406,1977647,-5270,3233324,-5343255,3156346,-6596004,-7439453,-7914276,-7679359
2035340407,1977648,474,3243566,-5344874,3150937,-6598517,-7441187,-7920321,-7684206
2035340408,1977649,-754,3244564,-5345704,3146371,-6599876,-7442438,-7925569,-7687706
2035340409,1977650,-6112,3239899,-5345785,3140985,-6600269,-7443122,-7929941,-7690017
2035340410,1977651,-26313,3219393,-5345006,3126788,-6599351,-7442818,-7931004,-7689692
2035340411,1977652,-83121,3170374,-5343628,3087341,-6596955,-7440784,-7920993,-7682620
2035340412,1977653,-115869,3145639,-5342424,3071747,-6594759,-7438827,-7909395,-7675240
2035340413,1977654,-128904,3131141,-5340746,3073704,-6592362,-7437102,-7901315,-7669655
2035340414,1977655,-146648,3108318,-5337573,3074941,-6588317,-7434616,-7893156,-7662652
2035340415,1977656,-164903,3092814,-5334074,3078116,-6583745,-7431908,-7885002,-7655111
2035340416,1977657,-177079,3082219,-5331163,3085471,-6579822,-7429377,-7877232,-7648272
2035340417,1977658,-182291,3074297,-5329413,3095331,-6577269,-7427453,-7870377,-7643067
2035412277,1977659,-182229,3073740,-5328654,3105898,-6576005,-7426226,-7864592,-7639472
2035412278,1977660,-172816,3081922,-5328633,3117724,-6575776,-7425777,-7861040,-7637943
2035412279,1977661,-125202,3115018,-5329434,3151151,-6577020,-7426929,-7867418,-7642736
2035412280,1977662,-85905,3137087,-5330568,3173132,-6578894,-7428869,-7879030,-7650291
2035412281,1977663,-75765,3142924,-5331562,3169819,-6580421,-7430262,-7886487,-7655142
2035412282,1977664,-62841,3156093,-5333192,3166081,-6582897,-7431910,-7893014,-7659952
2035412283,1977665,-42674,3180682,-5336336,3163696,-6587276,-7434376,-7900075,-7666436
2035412284,1977666,-21737,3208695,-5339946,3159640,-6592342,-7437189,-7907467,-7673739
2035412285,1977667,-6957,3230104,-5342584,3153433,-6596409,-7439580,-7914370,-7680186
2035412286,1977668,-1134,3240451,-5344067,3148061,-6598780,-7441166,-7920265,-7684901
2035412287,1977669,-2274,3241588,-5344822,3143486,-6600069,-7442336,-7925432,-7688334
2035412288,1977670,-7589,3236973,-5345025,3138010,-6600586,-7443136,-7929914,-7690781
2035412289,1977671,-27755,3216482,-5344281,3123758,-6599694,-7442843,-7930987,-7690482
2035412290,1977672,-84651,3167371,-5343019,3084181,-6597431,-7440929,-7921052,-7683511
2035412291,1977673,-117164,3142947,-5341825,3068764,-6595259,-7438994,-7909496,-7676174
2035412292,1977674,-130100,3128719,-5340079,3070768,-6592795,-7437193,-7901351,-7670536
2035412293,1977675,-147776,3106147,-5336899,3072027,-6588737,-7434682,-7893191,-7663540
2035412294,1977676,-165975,3090729,-5333326,3075158,-6584099,-7431910,-7884984,-7655947
2035412295,1977677,-178216,3080016,-5330545,3082514,-6580306,-7429532,-7877367,-7649245
2035412296,1977678,-183558,3071817,-5328996,3092354,-6577938,-7427824,-7870727,-7644228
2035412297,1977679,-183634,3071074,-5328207,3102881,-6576631,-7426566,-7864914,-7640596
2035412298,1977680,-174603,3078799,-5328019,3114500,-6576234,-7425939,-7861082,-7638806
2035412299,1977681,-128046,3112728,-5328965,3147214,-6577577,-7427193,-7867219,-7643527
2035412300,1977682,-87306,3137563,-5330117,3170548,-6579487,-7429169,-7878916,-7651163
2035412301,1977683,-76738,3141219,-5331147,3167599,-6581064,-7430609,-7886517,-7656117
2035412302,1977684,-63954,3154256,-5332681,3163831,-6583427,-7432169,-7892995,-7660846
2035412303,1977685,-43879,3178607,-5335805,3161331,-6587784,-7434627,-7900053,-7667306
2035412304,1977686,-22852,3206629,-5339229,3157276,-6592654,-7437256,-7907264,-7674421
2035412305,1977687,-7878,3228289,-5341896,3151123,-6596758,-7439646,-7914176,-7680910
2035412306,1977688,-1861,3238841,-5343671,3145738,-6599438,-7441521,-7920367,-7685944
2035412307,1977689,-2931,3240136,-5344313,3141165,-6600627,-7442584,-7925449,-7689282
2035412308,1977690,-8087,3235778,-5344416,3135808,-6601046,-7443276,-7929840,-7691636
2035412309,1977691,-26331,3216948,-5343926,3122972,-6600451,-7443301,-7931607,-7691849
2035412310,1977692,-82064,3167369,-5342466,3084074,-6598017,-7441249,-7922156,-7685034
2035412311,1977693,-117576,3141135,-5341107,3066118,-6595652,-7439106,-7910119,-7677313
2035412312,1977694,-130712,3127009,-5339499,3067963,-6593317,-7437406,-7901956,-7671729
2035412313,1977695,-148271,3104204,-5336591,3069181,-6589544,-7435152,-7893993,-7664971
2035412314,1977696,-166729,3087061,-5332974,3072094,-6584857,-7432347,-7885721,-7657324
2035412315,1977697,-179283,3077404,-5330006,3079211,-6580872,-7429779,-7877898,-7650416
2035412316,1977698,-184810,3069259,-5328330,3089060,-6578375,-7427954,-7871111,-7645253
2035412317,1977699,-185019,3068398,-5327679,3099529,-6577196,-7426826,-7865399,-7641729
2035412318,1977700,-177481,3075354,-5327381,3110396,-6576668,-7426072,-7861193,-7639680
2035412319,1977701,-133525,3106822,-5328210,3142059,-6577872,-7427151,-7866447,-7643862
2035412320,1977702,-90175,3131958,-5329347,3167363,-6579779,-7429122,-7878294,-7651609
2035412321,1977703,-78996,3137559,-5330375,3164881,-6581356,-7430574,-7886080,-7656665
2035412322,1977704,-66375,3150334,-5331871,3161030,-6583678,-7432115,-7892589,-7661381
2035412323,1977705,-46446,3174458,-5334956,3158591,-6587982,-7434546,-7899655,-7667818
2035412324,1977706,-25357,3202489,-5338432,3154643,-6592897,-7437219,-7906939,-7674996
2035412325,1977707,-10156,3224455,-5341129,3148245,-6597052,-7439654,-7913905,-7681540
2035412326,1977708,-3902,3235371,-5342807,3143274,-6599665,-7441437,-7920031,-7686507
2035412327,1977709,-4971,3236720,-5343695,3138834,-6601084,-7442726,-7925344,-7690087
2035412328,1977710,-10042,3232449,-5343816,3133324,-6601517,-7443427,-7929753,-7692469
2035412329,1977711,-28175,3213777,-5343116,3120549,-6600722,-7443228,-7931314,-7692486
2035412330,1977712,-83809,3164321,-5341844,3081644,-6598477,-7441367,-7922059,-7685872
2035412331,1977713,-119328,3138134,-5340607,3063633,-6596227,-7439351,-7910142,-7678281
2035412332,1977714,-132397,3124151,-5338941,3065455,-6593834,-7437591,-7901924,-7672654
2035412333,1977715,-149871,3101509,-5335804,3066743,-6589834,-7435100,-7893749,-7665689
2035412334,1977716,-168356,3084337,-5332274,3069617,-6585241,-7432391,-7885575,-7658136
2035412335,1977717,-181111,3074387,-5329231,3076653,-6581176,-7429775,-7877696,-7651157
2035412336,1977718,-186799,3065938,-5327620,3086385,-6578734,-7428019,-7870986,-7646042
2035472219,1977719,-187037,3064976,-5326809,3096909,-6577390,-7426741,-7865129,-7642354
2035472220,1977720,-179467,3072016,-5326674,3107966,-6577031,-7426153,-7861076,-7640454
2035472221,1977721,-135424,3103549,-5327396,3139748,-6578117,-7427115,-7866229,-7644511
2035472222,1977722,-92041,3128699,-5328562,3165040,-6580043,-7429113,-7878101,-7652296
2035472223,1977723,-80889,3134247,-5329661,3162608,-6581687,-7430631,-7885948,-7657421
2035472224,1977724,-68419,3146783,-5331161,3158723,-6583997,-7432201,-7892470,-7662125
2035472225,1977725,-48646,3170721,-5333987,3156202,-6588039,-7434379,-7899268,-7668282
2035472226,1977726,-27557,3198799,-5337556,3152289,-6593042,-7437127,-7906627,-7675540
2035472227,1977727,-12203,3220978,-5340414,3145941,-6597362,-7439706,-7913740,-7682252
2035472228,1977728,-5701,3232169,-5342164,3140286,-6600042,-7441544,-7919906,-7687285
2035472229,1977729,-6492,3233811,-5342920,3135588,-6601342,-7442696,-7925089,-7690739
2035472230,1977730,-11552,3229552,-5343020,3130241,-6601772,-7443377,-7929501,-7693121
2035472231,1977731,-29417,3211149,-5342356,3117607,-6601021,-7443222,-7931155,-7693216
2035472232,1977732,-84951,3161791,-5341229,3078731,-6598937,-7441525,-7922124,-7686802
2035472233,1977733,-120821,3135278,-5339887,3060378,-6596586,-7439394,-7910082,-7679082
2035472234,1977734,-133772,3121478,-5338205,3062219,-6594179,-7437602,-7901824,-7673433
2035472235,1977735,-151161,3099028,-5335156,3063432,-6590284,-7435192,-7893731,-7666571
2035472236,1977736,-169757,3081801,-5331641,3066142,-6585714,-7432506,-7885582,-7659045
2035472237,1977737,-182664,3071709,-5328542,3073089,-6581591,-7429846,-7877657,-7652005
2035472238,1977738,-188513,3063125,-5326851,3082785,-6579067,-7428023,-7870874,-7646804
2035472239,1977739,-188877,3062003,-5326205,3093381,-6577869,-7426896,-7865169,-7643262
2035472240,1977740,-182247,3068124,-5325913,3104034,-6577325,-7426128,-7860819,-7641106
2035472241,1977741,-140374,3097455,-5326584,3133723,-6578328,-7426988,-7865292,-7644763
2035472242,1977742,-94926,3124626,-5327802,3161024,-6580316,-7429047,-7877273,-7652669
2035472243,1977743,-83038,3130916,-5328791,3159218,-6581864,-7430491,-7885210,-7657809
2035472244,1977744,-70672,3143251,-5330335,3155243,-6584216,-7432111,-7891839,-7662594
2035472245,1977745,-50908,3166984,-5333371,3152778,-6588461,-7434516,-7898891,-7668961
2035472246,1977746,-29667,3195178,-5336765,3149021,-6593289,-7437096,-7906089,-7676050
2035472247,1977747,-14127,3217503,-5339541,3142766,-6597534,-7439595,-7913128,-7682687
2035472248,1977748,-7613,3228763,-5341431,3137775,-6600370,-7441569,-7919441,-7687880
2035472249,1977749,-8531,3230300,-5342262,3133286,-6601755,-7442794,-7924719,-7691441
2035472250,1977750,-13422,3226258,-5342250,3127793,-6602076,-7443362,-7929019,-7693713
2035472251,1977751,-30519,3208614,-5341627,3115696,-6601369,-7443266,-7930858,-7693946
2035472252,1977752,-85322,3160069,-5340367,3077313,-6599174,-7441467,-7922007,-7687571
2035472253,1977753,-122343,3132411,-5339041,3057927,-6596825,-7439331,-7909859,-7679777
2035472254,1977754,-135385,3118624,-5337335,3059669,-6594388,-7437495,-7901507,-7674071
2035472255,1977755,-152678,3096429,-5334336,3060943,-6590546,-7435127,-7893453,-7667279
2035472256,1977756,-171317,3079236,-5330844,3063654,-6585988,-7432458,-7885315,-7659765
2035472257,1977757,-184347,3068985,-5327870,3070589,-6581977,-7429927,-7877521,-7652835
2035472258,1977758,-190281,3060288,-5326192,3080383,-6579462,-7428136,-7870762,-7647645
2035472259,1977759,-190852,3058934,-5325418,3090838,-6578144,-7426906,-7864941,-7643967
2035472260,1977760,-184228,3064951,-5325246,3101468,-6577724,-7426258,-7860706,-7641916
2035472261,1977761,-142404,3095628,-5325994,3131184,-6578795,-7427189,-7865259,-7645651
2035472262,1977762,-96912,3125073,-5327137,3158721,-6580722,-7429191,-7877160,-7653474
2035472263,1977763,-84898,3128687,-5328030,3157016,-6582159,-7430529,-7884979,-7658511
2035472264,1977764,-72751,3140673,-5329547,3152991,-6584474,-7432130,-7891584,-7663256
2035472265,1977765,-53214,3164127,-5332520,3150406,-6588647,-7434491,-7898588,-7669545
2035472266,1977766,-31916,3192298,-5336090,3146645,-6593647,-7437232,-7905932,-7676793
2035472267,1977767,-16230,3214888,-5338980,3140461,-6598004,-7439813,-7913056,-7683536
2035472268,1977768,-9409,3226509,-5340734,3134878,-6600712,-7441639,-7919234,-7688611
2035472269,1977769,-9957,3228418,-5341541,3130257,-6602090,-7442831,-7924481,-7692158
2035472270,1977770,-14736,3224512,-5341642,3124931,-6602532,-7443507,-7928896,-7694554
2035472271,1977771,-30949,3207850,-5341054,3113433,-6601878,-7443467,-7930955,-7694927
2035472272,1977772,-84823,3160204,-5339975,3075576,-6599896,-7441898,-7922676,-7688953
2035472273,1977773,-123329,3130994,-5338517,3054899,-6597388,-7439617,-7910251,-7680921
2035472274,1977774,-136492,3117114,-5336858,3056530,-6595005,-7437807,-7901863,-7675216
2035472275,1977775,-153737,3095046,-5334037,3057796,-6591336,-7435592,-7893940,-7668590
2035472276,1977776,-172377,3077841,-5330441,3060514,-6586684,-7432825,-7885693,-7660981
2035472277,1977777,-185535,3067418,-5327331,3067377,-6582544,-7430174,-7877761,-7653916
2035472278,1977778,-191589,3058502,-5325432,3077052,-6579802,-7428168,-7870785,-7648482
2035472279,1977779,-192271,3056996,-5324734,3087508,-6578542,-7427007,-7865020,-7644856
2035472280,1977780,-185966,3062723,-5324614,3097979,-6578180,-7426432,-7860807,-7642847
2035472281,1977781,-144947,3091135,-5325271,3127043,-6579145,-7427251,-7865051,-7646361
2035472282,1977782,-99007,3118785,-5326248,3154896,-6580886,-7429062,-7876768,-7654010
2035472283,1977783,-86886,3125342,-5327229,3153334,-6582427,-7430507,-7884757,-7659171
2035472284,1977784,-74876,3137194,-5328845,3149325,-6584824,-7432222,-7891471,-7664012
2035472285,1977785,-55455,3160388,-5331704,3146838,-6588872,-7434474,-7898358,-7670169
2035472286,1977786,-34137,3188596,-5335162,3143172,-6593769,-7437111,-7905603,-7677303
2035472287,1977787,-18279,3211332,-5338168,3137056,-6598228,-7439786,-7912816,-7684143
2035472288,1977788,-11421,3223017,-5340092,3132127,-6601111,-7441780,-7919161,-7689409
2035472289,1977789,-12116,3224858,-5340644,3127719,-6602248,-7442728,-7924163,-7692717
2035472290,1977790,-16836,3221123,-5340697,3122278,-6602651,-7443359,-7928535,-7695077
2035472291,1977791,-32631,3204912,-5340312,3111076,-6602212,-7443519,-7930851,-7695697
2035472292,1977792,-86208,3157604,-5339177,3073384,-6600178,-7441900,-7922634,-7689734
2035472293,1977793,-125214,3128018,-5337618,3052347,-6597571,-7439506,-7910067,-7681572
2035472294,1977794,-138317,3114219,-5336042,3053986,-6595264,-7437772,-7901735,-7675954
2035472295,1977795,-155367,3092392,-5333111,3055258,-6591495,-7435447,-7893694,-7669230
2035472296,1977796,-174019,3075198,-5329603,3057928,-6586934,-7432766,-7885546,-7661711
2035472297,1977797,-187349,3064608,-5326706,3064688,-6583004,-7430345,-7877849,-7654863
2035472298,1977798,-193594,3055449,-5324816,3074336,-6580252,-7428364,-7870876,-7649413
2035472299,1977799,-194232,3053928,-5324046,3084898,-6578922,-7427141,-7865044,-7645711
2035472300,1977800,-188096,3059403,-5323774,3095273,-6578408,-7426399,-7860636,-7643516
2035472301,1977801,-147532,3088724,-5324414,3124156,-6579346,-7427188,-7864726,-7646925
2035472302,1977802,-101073,3119030,-5325691,3152553,-6581382,-7429302,-7876753,-7654879
2035472303,1977803,-88751,3122930,-5326644,3151179,-6582883,-7430715,-7884742,-7660031
2035472304,1977804,-76967,3134484,-5328061,3147111,-6585078,-7432249,-7891288,-7664680
2035472305,1977805,-57644,3157553,-5330834,3144625,-6589041,-7434427,-7898096,-7670750
2035472306,1977806,-36286,3185819,-5334381,3140973,-6594019,-7437149,-7905406,-7677961
2035472307,1977807,-20287,3208768,-5337501,3134933,-6598613,-7439934,-7912737,-7684934
2035472308,1977808,-13106,3220823,-5339359,3129497,-6601445,-7441833,-7919002,-7690126
2035472309,1977809,-13506,3223005,-5340122,3124846,-6602771,-7442974,-7924204,-7693641
2035472310,1977810,-18131,3219385,-5340074,3119563,-6603079,-7443507,-7928482,-7695912
2035472311,1977811,-33106,3203811,-5339537,3108953,-6602518,-7443539,-7930824,-7696497
2035472312,1977812,-85643,3155878,-5338391,3071976,-6600503,-7441961,-7923043,-7690767
2035472313,1977813,-126407,3125434,-5337051,3049325,-6598094,-7439761,-7910554,-7682714
2035472314,1977814,-139776,3111887,-5335469,3050639,-6595801,-7438002,-7902117,-7677044
2035568127,1977815,-156779,3089997,-5332685,3051919,-6592171,-7435803,-7894173,-7670456
2035568128,1977816,-175501,3071156,-5329140,3054483,-6587575,-7433094,-7885974,-7662894
2035568129,1977817,-189049,3061459,-5326064,3061014,-6583462,-7430503,-7878087,-7655847
2035568130,1977818,-195413,3052449,-5324108,3070563,-6580644,-7428447,-7871052,-7650321
2035568131,1977819,-196201,3050726,-5323269,3081144,-6579234,-7427156,-7865134,-7646539
2035568132,1977820,-191039,3055811,-5323199,3091497,-6578889,-7426607,-7860742,-7644421
2035568133,1977821,-153376,3082951,-5323785,3118692,-6579742,-7427269,-7863997,-7647328
2035568134,1977822,-104729,3112829,-5324732,3148868,-6581466,-7429059,-7875723,-7655011
2035568135,1977823,-91231,3119190,-5325857,3148413,-6583156,-7430667,-7884131,-7660491
2035568136,1977824,-79471,3130629,-5327336,3144298,-6585408,-7432279,-7890818,-7665252
2035568137,1977825,-60219,3153485,-5330254,3141832,-6589508,-7434626,-7897831,-7671473
2035568138,1977826,-38754,3181702,-5333697,3138288,-6594368,-7437239,-7905056,-7678589
2035568139,1977827,-22546,3204870,-5336632,3132319,-6598785,-7439834,-7912211,-7685393
2035568140,1977828,-15187,3217276,-5338526,3126886,-6601659,-7441759,-7918519,-7690634
2035568141,1977829,-15425,3219647,-5339331,3122331,-6603050,-7442944,-7923778,-7694212
2035568142,1977830,-19925,3216101,-5339464,3117064,-6603551,-7443665,-7928252,-7696687
2035568143,1977831,-34492,3201031,-5339034,3106694,-6603097,-7443807,-7930761,-7697419
2035568144,1977832,-86527,3153594,-5337716,3069986,-6600909,-7442059,-7922961,-7691601
2035568145,1977833,-127797,3122661,-5336191,3046839,-6598319,-7439681,-7910263,-7683357
2035568146,1977834,-141187,3109241,-5334878,3048154,-6596278,-7438178,-7902049,-7677937
2035568147,1977835,-158156,3087456,-5332039,3049403,-6592610,-7435912,-7894046,-7671312
2035568148,1977836,-177000,3068489,-5328339,3051823,-6587862,-7433054,-7885701,-7663608
2035568149,1977837,-190759,3058592,-5325314,3058300,-6583794,-7430517,-7877862,-7656601
2035568150,1977838,-197301,3049307,-5323479,3067813,-6581094,-7428605,-7870954,-7651185
2035568151,1977839,-198095,3047478,-5322780,3078422,-6579816,-7427453,-7865173,-7647521
2035568152,1977840,-193302,3052130,-5322593,3088507,-6579347,-7426792,-7860612,-7645252
2035568153,1977841,-157169,3078670,-5323142,3114556,-6580141,-7427387,-7863426,-7647896
2035568154,1977842,-107311,3112486,-5324147,3146021,-6581906,-7429211,-7875147,-7655619
2035568155,1977843,-92963,3116891,-5325025,3146344,-6583352,-7430599,-7883475,-7660951
2035568156,1977844,-81366,3127844,-5326506,3142147,-6585599,-7432222,-7890204,-7665727
2035568157,1977845,-62326,3150419,-5329266,3139548,-6589529,-7434421,-7897078,-7671788
2035568158,1977846,-40981,3178539,-5332840,3135846,-6594522,-7437162,-7904451,-7679038
2035568159,1977847,-24622,3201864,-5335800,3129606,-6598967,-7439754,-7911623,-7685861
2035568160,1977848,-17070,3214488,-5337690,3124294,-6601862,-7441699,-7917941,-7691138
2035568161,1977849,-17381,3216826,-5338618,3119839,-6603381,-7443004,-7923322,-7694849
2035568162,1977850,-21865,3213308,-5338754,3114370,-6603882,-7443702,-7927805,-7697336
2035568163,1977851,-35914,3198738,-5338272,3104342,-6603401,-7443812,-7930381,-7698090
2035568164,1977852,-87077,3152171,-5337151,3068259,-6601436,-7442302,-7923090,-7692642
2035568165,1977853,-129583,3120081,-5335809,3044096,-6599011,-7440086,-7910493,-7684504
2035568166,1977854,-143151,3106509,-5334234,3045171,-6596703,-7438299,-7901942,-7678779
2035568167,1977855,-159923,3085008,-5331352,3046461,-6593002,-7435984,-7893876,-7672121
2035568168,1977856,-178792,3066003,-5327858,3048878,-6588477,-7433338,-7885731,-7664615
2035568169,1977857,-192670,3055949,-5324827,3055294,-6584397,-7430807,-7877897,-7657610
2035568170,1977858,-199294,3046607,-5322857,3064862,-6581560,-7428773,-7870867,-7652052
2035568171,1977859,-200293,3044611,-5322024,3075383,-6580130,-7427491,-7864951,-7648237
2035568172,1977860,-195476,3049297,-5321792,3085499,-6579609,-7426773,-7860329,-7645898
2035568173,1977861,-159379,3075769,-5322295,3111548,-6580351,-7427322,-7863072,-7648481
2035568174,1977862,-109404,3109673,-5323405,3143088,-6582229,-7429266,-7874896,-7656316
2035568175,1977863,-95056,3114103,-5324414,3143461,-6583807,-7430781,-7883342,-7661776
2035568176,1977864,-83690,3124796,-5325854,3139231,-6586001,-7432366,-7890036,-7666503
2035568177,1977865,-64780,3147136,-5328509,3136633,-6589831,-7434494,-7896836,-7672463
2035568178,1977866,-43281,3175329,-5332006,3133094,-6594737,-7437141,-7904102,-7679604
2035568179,1977867,-26727,3198891,-5334958,3126950,-6599182,-7439724,-7911252,-7686414
2035568180,1977868,-18962,3211756,-5336902,3121790,-6602140,-7441711,-7917625,-7691759
2035568181,1977869,-19081,3214308,-5337899,3117467,-6603733,-7443086,-7923067,-7695558
2035568182,1977870,-23472,3210901,-5338054,3112043,-6604251,-7443797,-7927563,-7698062
2035568183,1977871,-36587,3197378,-5337638,3102726,-6603850,-7443982,-7930399,-7699002
2035568184,1977872,-85974,3152750,-5336392,3067941,-6601804,-7442404,-7923599,-7693775
2035568185,1977873,-130612,3118545,-5334937,3041949,-6599242,-7440054,-7910740,-7685409
2035568186,1977874,-144645,3104451,-5333543,3042648,-6597111,-7438432,-7902210,-7679782
2035568187,1977875,-161332,3083089,-5330786,3043883,-6593518,-7436217,-7894199,-7673207
2035568188,1977876,-180210,3064161,-5327169,3046219,-6588861,-7433451,-7885900,-7665578
2035568189,1977877,-194183,3054021,-5324111,3052583,-6584756,-7430895,-7878034,-7658526
2035568190,1977878,-200937,3044414,-5322284,3062059,-6582054,-7429015,-7871131,-7653085
2035568191,1977879,-202014,3042188,-5321343,3072550,-6580522,-7427640,-7865100,-7649157
2035568192,1977880,-197201,3046829,-5320824,3082791,-6579722,-7426638,-7860196,-7646527
2035568193,1977881,-160927,3073424,-5321551,3109115,-6580684,-7427425,-7863223,-7649352
2035568194,1977882,-111254,3106976,-5322731,3140439,-6582627,-7429447,-7875115,-7657242
2035568195,1977883,-97115,3111217,-5323777,3140684,-6584230,-7430972,-7883561,-7662709
2035568196,1977884,-85897,3121758,-5325259,3136451,-6586448,-7432599,-7890285,-7667457
2035568197,1977885,-67079,3143892,-5327840,3133876,-6590186,-7434660,-7896990,-7673305
2035568198,1977886,-45589,3172042,-5331329,3130379,-6595096,-7437317,-7904238,-7680443
2035568199,1977887,-28837,3195788,-5334348,3124342,-6599588,-7439936,-7911417,-7687312
2035568200,1977888,-20909,3208858,-5336281,3119156,-6602557,-7441891,-7917756,-7692662
2035568201,1977889,-20966,3211543,-5337151,3114841,-6604031,-7443131,-7923077,-7696336
2035568202,1977890,-25332,3208236,-5337371,3109383,-6604626,-7443918,-7927654,-7698908
2035568203,1977891,-38589,3194476,-5337096,3099864,-6604369,-7444241,-7930567,-7699961
2035568204,1977892,-88584,3149143,-5335844,3064579,-6602316,-7442644,-7923546,-7694626
2035568205,1977893,-132483,3115597,-5334393,3039179,-6599776,-7440311,-7910737,-7686311
2035568206,1977894,-146241,3101909,-5332877,3040084,-6597523,-7438547,-7902127,-7680591
2035568207,1977895,-162813,3080799,-5330117,3041401,-6593944,-7436324,-7894141,-7674056
2035568208,1977896,-181709,3061824,-5326352,3043667,-6589138,-7433404,-7885727,-7666290
2035568209,1977897,-195858,3051491,-5323169,3049928,-6584906,-7430734,-7877762,-7659117
2035568210,1977898,-202809,3041711,-5321345,3059361,-6582221,-7428888,-7870890,-7653697
2035652046,1977899,-203941,3039489,-5320643,3069878,-6580911,-7427751,-7865086,-7649987
2035652047,1977900,-199477,3043756,-5320300,3079916,-6580275,-7426914,-7860314,-7647493
2035652048,1977901,-164183,3069375,-5320796,3105553,-6580987,-7427444,-7862867,-7649941
2035652049,1977902,-113776,3103618,-5321997,3137488,-6582946,-7429469,-7874742,-7657841
2035652050,1977903,-99202,3108309,-5323009,3138047,-6584524,-7430988,-7883263,-7663341
2035652051,1977904,-88107,3118593,-5324304,3133766,-6586554,-7432454,-7889836,-7667916
2035652052,1977905,-69400,3140503,-5326962,3131199,-6590366,-7434597,-7896634,-7673837
2035652053,1977906,-47891,3168636,-5330480,3127759,-6595295,-7437270,-7903914,-7680991
2035652054,1977907,-31001,3192499,-5333574,3121768,-6599884,-7439977,-7911181,-7687956
2035652055,1977908,-22791,3205903,-5335465,3116125,-6602809,-7441883,-7917476,-7693264
2035652056,1977909,-22541,3208985,-5336339,3111391,-6604277,-7443103,-7922789,-7696940
2035652057,1977910,-26756,3205793,-5336600,3106165,-6604927,-7443933,-7927417,-7699586
2035652058,1977911,-39285,3192780,-5336237,3097137,-6604593,-7444169,-7930375,-7700630
2035652059,1977912,-87972,3147248,-5335209,3062716,-6602779,-7442844,-7924031,-7695767
2035652060,1977913,-133546,3112674,-5333647,3035862,-6600108,-7440382,-7911012,-7687255
2035652061,1977914,-147677,3099361,-5332128,3036475,-6597852,-7438607,-7902289,-7681476
2035652062,1977915,-164174,3078664,-5329557,3037784,-6594468,-7436551,-7894443,-7675125
2035652063,1977916,-183031,3061456,-5326029,3040113,-6589914,-7433877,-7886246,-7667591
2035652064,1977917,-197274,3049846,-5322731,3046394,-6585563,-7431124,-7878174,-7660310
2035652065,1977918,-204366,3039509,-5320697,3055833,-6582637,-7429049,-7871080,-7654650
2035652066,1977919,-205721,3037004,-5319716,3066401,-6581034,-7427627,-7864992,-7650631
2035652067,1977920,-201379,3041155,-5319444,3077002,-6580465,-7426860,-7860277,-7648195
2035652068,1977921,-166508,3066279,-5320103,3102763,-6581337,-7427546,-7862942,-7650768
2035652069,1977922,-116166,3100399,-5321095,3134539,-6583113,-7429396,-7874604,-7658466
2035652070,1977923,-101454,3105150,-5322048,3135252,-6584620,-7430848,-7883071,-7663906
2035652071,1977924,-90573,3115256,-5323524,3130971,-6586814,-7432507,-7889824,-7668657
2035652072,1977925,-72146,3136833,-5326126,3128290,-6590557,-7434604,-7896568,-7674499
2035652073,1977926,-50666,3164915,-5329612,3124885,-6595452,-7437243,-7903804,-7681611
2035652074,1977927,-33730,3188902,-5332656,3118933,-6599996,-7439886,-7911001,-7688516
2035652075,1977928,-25386,3202479,-5334616,3113355,-6602997,-7441846,-7917352,-7693906
2035652076,1977929,-24955,3205716,-5335626,3108656,-6604621,-7443200,-7922795,-7697732
2035652077,1977930,-29126,3202660,-5335875,3103446,-6605264,-7444004,-7927396,-7700360
2035652078,1977931,-42043,3189394,-5335394,3094028,-6604819,-7444116,-7930158,-7701241
2035652079,1977932,-91641,3144489,-5334366,3058853,-6602998,-7442756,-7923502,-7696216
2035652080,1977933,-135977,3110599,-5332882,3033080,-6600410,-7440379,-7910631,-7687852
2035652081,1977934,-149651,3097056,-5331392,3033998,-6598193,-7438639,-7902024,-7682158
2035652082,1977935,-166056,3076364,-5328778,3035333,-6594774,-7436528,-7894161,-7675800
2035652083,1977936,-184972,3057556,-5325117,3037487,-6590091,-7433719,-7885871,-7668167
2035652084,1977937,-199340,3046911,-5321956,3043556,-6585875,-7431107,-7877969,-7661017
2035652085,1977938,-206596,3036623,-5319941,3052814,-6582979,-7429084,-7870916,-7655381
2035652086,1977939,-208067,3033929,-5319021,3063243,-6581441,-7427734,-7864906,-7651434
2035652087,1977940,-204104,3037630,-5318738,3073580,-6580834,-7426946,-7860123,-7648934
2035652088,1977941,-170757,3061251,-5319148,3098306,-6581421,-7427334,-7862138,-7651029
2035652089,1977942,-119519,3096279,-5320266,3130958,-6583322,-7429302,-7873872,-7658840
2035652090,1977943,-103994,3101796,-5321381,3132331,-6584996,-7430940,-7882651,-7664530
2035652091,1977944,-93083,3111834,-5322641,3128083,-6586986,-7432399,-7889241,-7669096
2035652092,1977945,-74749,3133171,-5325287,3125391,-6590772,-7434561,-7896065,-7674990
2035652093,1977946,-53275,3161188,-5328937,3121971,-6595807,-7437359,-7903481,-7682255
2035700002,1977947,-36128,3185464,-5331916,3116121,-6600285,-7439926,-7910602,-7689090
2035700003,1977948,-27636,3199296,-5333980,3110573,-6603412,-7441991,-7917065,-7694609
2035700004,1977949,-27144,3202618,-5334960,3105864,-6605001,-7443301,-7922481,-7698421
2035700005,1977950,-31196,3199679,-5335180,3100674,-6605617,-7444075,-7927065,-7701028
2035700006,1977951,-43809,3186695,-5334753,3091466,-6605244,-7444244,-7929915,-7702008
2035700007,1977952,-92872,3140846,-5333542,3056721,-6603252,-7442726,-7923265,-7696907
2035700008,1977953,-137944,3106800,-5332347,3030204,-6600951,-7440640,-7910671,-7688810
2035700009,1977954,-151798,3093806,-5330786,3030877,-6598650,-7438812,-7901947,-7683031
2035700010,1977955,-168030,3073210,-5328119,3032248,-6595171,-7436634,-7894010,-7676622
2035700011,1977956,-187027,3052673,-5324563,3034328,-6590598,-7433936,-7885824,-7669094
2035700012,1977957,-201684,3042779,-5321342,3040301,-6586322,-7431278,-7877872,-7661892
2035700013,1977958,-209138,3032849,-5319407,3049586,-6583510,-7429344,-7870913,-7656324
2035700014,1977959,-210586,3030195,-5318289,3060148,-6581764,-7427809,-7864703,-7652156
2035700015,1977960,-206854,3034011,-5317869,3070288,-6581023,-7426886,-7859735,-7649489
2035700016,1977961,-174752,3058092,-5318510,3094143,-6581829,-7427497,-7861675,-7651639
2035700017,1977962,-122682,3094234,-5319619,3127669,-6583709,-7429434,-7873321,-7659409
2035700018,1977963,-106381,3099151,-5320619,3129713,-6585286,-7430969,-7882116,-7665068
2035700019,1977964,-95654,3108574,-5321894,3125336,-6587253,-7432432,-7888742,-7669650
2035700020,1977965,-77453,3129696,-5324609,3122626,-6591102,-7434677,-7895662,-7675607
2035700021,1977966,-55950,3157718,-5328231,3119284,-6596127,-7437455,-7903046,-7682843
2035700022,1977967,-38652,3182084,-5331159,3113506,-6600551,-7439947,-7910114,-7689636
2035700023,1977968,-30041,3195956,-5333236,3108483,-6603714,-7442030,-7916611,-7695197
2035700024,1977969,-29718,3199198,-5334201,3104113,-6605315,-7443349,-7922037,-7699024
2035700025,1977970,-33836,3196290,-5334430,3098530,-6605934,-7444113,-7926610,-7701636
2035700026,1977971,-46110,3183709,-5334079,3089490,-6605632,-7444363,-7929607,-7702732
2035700027,1977972,-94452,3138574,-5332972,3055178,-6603756,-7442959,-7923265,-7697845
2035700028,1977973,-140229,3103833,-5331690,3028046,-6601352,-7440777,-7910539,-7689627
2035700029,1977974,-154270,3090728,-5330321,3028567,-6599256,-7439137,-7901956,-7684021
2035700030,1977975,-170394,3070347,-5327531,3029989,-6595676,-7436820,-7893881,-7677492
2035700031,1977976,-189371,3049844,-5323922,3032003,-6591042,-7434061,-7885644,-7669919
2035700032,1977977,-204210,3039707,-5320762,3037774,-6586819,-7431475,-7877756,-7662781
2035700033,1977978,-211873,3029552,-5318705,3047019,-6583871,-7429434,-7870682,-7657078
2035700034,1977979,-213531,3026613,-5317775,3057461,-6582326,-7428095,-7864673,-7653099
2035700035,1977980,-210334,3030091,-5317497,3067409,-6581720,-7427317,-7859752,-7650509
2035700036,1977981,-180866,3053276,-5317855,3090328,-6582199,-7427573,-7860739,-7651983
2035700037,1977982,-127359,3091236,-5318905,3125193,-6584009,-7429429,-7872180,-7659656
2035700038,1977983,-109533,3096335,-5319872,3128411,-6585557,-7430952,-7881214,-7665459
2035700039,1977984,-98964,3105152,-5321174,3123963,-6587567,-7432474,-7887965,-7670114
2035700040,1977985,-80904,3126036,-5323621,3121213,-6591137,-7434490,-7894686,-7675832
2035700041,1977986,-59342,3154059,-5327366,3117911,-6596277,-7437377,-7902206,-7683192
2035700042,1977987,-41829,3178649,-5330498,3111973,-6600891,-7440056,-7909462,-7690186
2035700043,1977988,-32807,3193046,-5332611,3106026,-6604113,-7442184,-7916011,-7695821
2035700044,1977989,-31975,3196890,-5333532,3101163,-6605667,-7443434,-7921394,-7699604
2035700045,1977990,-35887,3194122,-5333756,3096087,-6606288,-7444206,-7925987,-7702234
2035700046,1977991,-46751,3182931,-5333323,3088151,-6605928,-7444404,-7929169,-7703417
2035700047,1977992,-91411,3141506,-5332291,3056624,-6604216,-7443202,-7924032,-7699244
2035700048,1977993,-140819,3103254,-5330956,3026303,-6601742,-7440951,-7911131,-7690825
2035700049,1977994,-156055,3089019,-5329500,3025914,-6599526,-7439177,-7902132,-7684932
2035700050,1977995,-172126,3068792,-5326989,3027304,-6596217,-7437114,-7894232,-7678638
2035700051,1977996,-191161,3048319,-5323396,3029286,-6591615,-7434379,-7885960,-7671064
2035700052,1977997,-206126,3038111,-5320129,3035069,-6587288,-7431689,-7877931,-7663784
2035700053,1977998,-213932,3027708,-5318039,3044228,-6584292,-7429619,-7870801,-7658021
2035700054,1977999,-215721,3024598,-5317077,3054684,-6582695,-7428242,-7864726,-7653974
2035700055,1978000,-212527,3027825,-5316646,3064617,-6581940,-7427321,-7859642,-7651217
2035700056,1978001,-183328,3048978,-5317194,3086374,-6582619,-7427774,-7860746,-7652853
2035700057,1978002,-129984,3086271,-5318341,3121224,-6584489,-7429697,-7872127,-7660515
2035700058,1978003,-111737,3093043,-5319345,3124880,-6586076,-7431262,-7881242,-7666377
2035700059,1978004,-101266,3102105,-5320594,3120366,-6588021,-7432736,-7887956,-7670992
2035700060,1978005,-83329,3122739,-5323097,3117584,-6591644,-7434820,-7894746,-7676751
2035700061,1978006,-61726,3150755,-5326480,3114385,-6596418,-7437352,-7901895,-7683732
2035700062,1978007,-44039,3175540,-5329524,3108535,-6600966,-7439937,-7909066,-7690637
2035700063,1978008,-34956,3190041,-5331633,3103014,-6604192,-7442039,-7915595,-7696271
2035700064,1978009,-34258,3193631,-5332742,3098662,-6605927,-7443460,-7921147,-7700246
2035700065,1978010,-38173,3190953,-5333056,3093241,-6606633,-7444306,-7925821,-7702958
2035700066,1978011,-49159,3179721,-5332593,3085093,-6606259,-7444466,-7928949,-7704108
2035700067,1978012,-94194,3137947,-5331479,3053186,-6604452,-7443166,-7923606,-7699795
2035700068,1978013,-143176,3100109,-5330249,3023203,-6602088,-7441024,-7910823,-7691503
2035700069,1978014,-158221,3086103,-5328861,3022878,-6599949,-7439323,-7901930,-7685706
2035700070,1978015,-174112,3066096,-5326333,3024284,-6596639,-7437238,-7894027,-7679423
2035700071,1978016,-193102,3045718,-5322830,3026252,-6592127,-7434582,-7885861,-7671947
2035700072,1978017,-208220,3035231,-5319543,3031859,-6587768,-7431886,-7877836,-7664659
2035700073,1978018,-216199,3024609,-5317205,3040916,-6584519,-7429582,-7870459,-7658644
2035700074,1978019,-218056,3021404,-5316260,3051433,-6582939,-7428236,-7864417,-7654615
2035700075,1978020,-214942,3024533,-5315802,3061272,-6582153,-7427286,-7859306,-7651826
2035700076,1978021,-186309,3045302,-5316216,3082593,-6582692,-7427609,-7860175,-7653257
2035700077,1978022,-132760,3086069,-5317460,3117745,-6584666,-7429643,-7871606,-7660982
2035700078,1978023,-114048,3091806,-5318363,3121913,-6586157,-7431112,-7880683,-7666786
2035700079,1978024,-103693,3099594,-5319632,3117468,-6588105,-7432594,-7887419,-7671413
2035700080,1978025,-85996,3119914,-5322314,3114645,-6591899,-7434859,-7894387,-7677339
2035700081,1978026,-64444,3147801,-5325771,3111456,-6596744,-7437479,-7901616,-7684397
2035700082,1978027,-46656,3172719,-5328789,3105670,-6601262,-7440026,-7908741,-7691272
2035700083,1978028,-37361,3187488,-5330989,3100270,-6604579,-7442202,-7915353,-7696997
2035700084,1978029,-36520,3191384,-5331958,3096060,-6606196,-7443490,-7920784,-7700851
2035700085,1978030,-40401,3188752,-5332389,3090621,-6607020,-7444454,-7925577,-7703697
2035700086,1978031,-51044,3177833,-5332086,3082650,-6606825,-7444790,-7928929,-7705047
2035700087,1978032,-95171,3136982,-5330924,3051369,-6604995,-7443473,-7923799,-7700832
2035700088,1978033,-144962,3098381,-5329604,3020616,-6602532,-7441234,-7910904,-7692430
2035700089,1978034,-160217,3084167,-5328222,3020071,-6600390,-7439511,-7901932,-7686591
2035700090,1978035,-175997,3064435,-5325551,3021526,-6596919,-7437251,-7893848,-7680164
2035700091,1978036,-195029,3044095,-5322053,3023421,-6592416,-7434608,-7885682,-7672702
2035789916,1978037,-210171,3033644,-5318786,3029118,-6588097,-7431947,-7877690,-7665435
2035789917,1978038,-218189,3022938,-5316669,3038271,-6585068,-7429878,-7870551,-7659629
2035789918,1978039,-220111,3019578,-5315725,3048753,-6583479,-7428531,-7864504,-7655589
2035789919,1978040,-217129,3022484,-5315245,3059023,-6582652,-7427557,-7859363,-7652759
2035789920,1978041,-188596,3042933,-5315724,3081027,-6583216,-7427914,-7860286,-7654222
2035789921,1978042,-135279,3080103,-5316658,3115738,-6584916,-7429656,-7871466,-7661686
2035789922,1978043,-116874,3086938,-5317612,3119506,-6586447,-7431173,-7880572,-7667517
2035789923,1978044,-106612,3095766,-5318964,3115036,-6588470,-7432759,-7887382,-7672217
2035789924,1978045,-89020,3115928,-5321521,3112236,-6592129,-7434917,-7894215,-7678001
2035789925,1978046,-67377,3143868,-5325039,3109121,-6597029,-7437582,-7901494,-7685099
2035789926,1978047,-49513,3168919,-5328182,3103441,-6601671,-7440248,-7908731,-7692096
2035789927,1978048,-40020,3183928,-5330209,3097643,-6604842,-7442252,-7915155,-7697658
2035789928,1978049,-38814,3188205,-5331155,3092847,-6606439,-7443497,-7920550,-7701487
2035789929,1978050,-42541,3185739,-5331497,3087768,-6607194,-7444377,-7925268,-7704260
2035789930,1978051,-52947,3175035,-5331227,3079912,-6607026,-7444741,-7928677,-7705668
2035789931,1978052,-96657,3133218,-5330204,3048916,-6605347,-7443586,-7923832,-7701693
2035789932,1978053,-147086,3094143,-5328899,3017557,-6602901,-7441351,-7910942,-7693289
2035789933,1978054,-162596,3080676,-5327474,3016828,-6600727,-7439584,-7901896,-7687402
2035789934,1978055,-178346,3061176,-5325039,3018263,-6597499,-7437554,-7894035,-7681212
2035789935,1978056,-197282,3042616,-5321551,3020195,-6593011,-7434915,-7885886,-7673759
2035789936,1978057,-212452,3031158,-5318334,3025895,-6588721,-7432302,-7877936,-7666536
2035789937,1978058,-220619,3019734,-5316062,3034924,-6585529,-7430096,-7870652,-7660563
2035789938,1978059,-222684,3016119,-5314827,3045289,-6583645,-7428473,-7864321,-7656223
2035789939,1978060,-220058,3018968,-5314479,3055336,-6582952,-7427611,-7859246,-7653478
2035789940,1978061,-193229,3039468,-5314891,3076066,-6583436,-7427871,-7859693,-7654642
2035789941,1978062,-139216,3077937,-5316040,3111676,-6585332,-7429810,-7870901,-7662244
2035789942,1978063,-119576,3084854,-5317038,3116611,-6586933,-7431398,-7880244,-7668247
2035789943,1978064,-109461,3093059,-5318191,3112092,-6588740,-7432799,-7886922,-7672777
2035789944,1978065,-92034,3112940,-5320564,3109224,-6592207,-7434792,-7893625,-7678377
2035789945,1978066,-70451,3140800,-5324107,3106137,-6597137,-7437496,-7900951,-7685516
2035789946,1978067,-52431,3165963,-5327262,3100464,-6601786,-7440146,-7908183,-7692509
2035789947,1978068,-42737,3181254,-5329461,3094719,-6605134,-7442307,-7914774,-7698253
2035789948,1978069,-41397,3185737,-5330580,3089913,-6606902,-7443720,-7920341,-7702273
2035789949,1978070,-45036,3183413,-5330841,3084821,-6607582,-7444525,-7924994,-7704976
2035789950,1978071,-55224,3173000,-5330547,3077061,-6607401,-7444859,-7928417,-7706391
2035789951,1978072,-98506,3131663,-5329526,3046230,-6605736,-7443722,-7923716,-7702495
2035789952,1978073,-149329,3092196,-5328211,3014490,-6603274,-7441486,-7910816,-7694074
2035789953,1978074,-164858,3078685,-5326826,3013715,-6601139,-7439749,-7901769,-7688201
2035789954,1978075,-180333,3059349,-5324210,3015232,-6597739,-7437507,-7893709,-7681844
2035789955,1978076,-199427,3037445,-5320587,3016954,-6593125,-7434742,-7885431,-7674285
2035789956,1978077,-215105,3027038,-5317421,3022195,-6588892,-7432202,-7877543,-7667114
2035789957,1978078,-223446,3016618,-5315182,3031201,-6585731,-7430031,-7870295,-7661165
2035789958,1978079,-225594,3012909,-5313978,3041652,-6583866,-7428436,-7863993,-7656831
2035789959,1978080,-223154,3015431,-5313715,3051999,-6583244,-7427661,-7858977,-7654142
2035789960,1978081,-198004,3034328,-5314127,3072255,-6583706,-7427886,-7859059,-7655089
2035789961,1978082,-143632,3076078,-5315194,3108180,-6585517,-7429749,-7869981,-7662513
2035789962,1978083,-122511,3083750,-5316135,3114339,-6587066,-7431289,-7879459,-7668590
2035789963,1978084,-112362,3090249,-5317436,3109801,-6589024,-7432838,-7886351,-7673302
2035789964,1978085,-95049,3109849,-5319835,3106913,-6592510,-7434872,-7893112,-7678924
2035789965,1978086,-73484,3137565,-5323317,3103861,-6597372,-7437517,-7900375,-7685984
2035789966,1978087,-55310,3162877,-5326591,3098062,-6602137,-7440272,-7907729,-7693110
2035789967,1978088,-45314,3178443,-5328771,3092154,-6605478,-7442416,-7914322,-7698866
2035789968,1978089,-43963,3183009,-5329861,3087816,-6607235,-7443802,-7919867,-7702874
2035789969,1978090,-47682,3180658,-5330197,3082483,-6607991,-7444674,-7924592,-7705657
2035843865,1978091,-57362,3170806,-5329789,3075121,-6607707,-7444904,-7927996,-7707020
2035843866,1978092,-98364,3131704,-5328561,3046068,-6605883,-7443621,-7923680,-7703262
2035843867,1978093,-150789,3090623,-5327292,3012895,-6603466,-7441426,-7910871,-7694872
2035843868,1978094,-167376,3076144,-5326036,3011238,-6601433,-7439782,-7901736,-7689002
2035843869,1978095,-182866,3056902,-5323556,3012706,-6598171,-7437671,-7893754,-7682757
2035843870,1978096,-201902,3035052,-5320067,3014417,-6593681,-7435022,-7885566,-7675311
2035843871,1978097,-217572,3024531,-5316757,3019651,-6589293,-7432345,-7877532,-7667989
2035843872,1978098,-226056,3013846,-5314444,3028595,-6586066,-7430128,-7870221,-7661961
2035843873,1978099,-228369,3009943,-5313387,3038943,-6584348,-7428697,-7864056,-7657761
2035843874,1978100,-226152,3012266,-5312964,3049153,-6583552,-7427757,-7858842,-7654872
2035843875,1978101,-202666,3029423,-5313321,3068086,-6583921,-7427881,-7858504,-7655544
2035843876,1978102,-148340,3071144,-5314404,3104166,-6585741,-7429729,-7869166,-7662853
2035843877,1978103,-125802,3080167,-5315365,3111499,-6587324,-7431309,-7878862,-7669070
2035843878,1978104,-115762,3086546,-5316492,3106967,-6589109,-7432707,-7885635,-7673632
2035843879,1978105,-98686,3105900,-5318901,3104005,-6592595,-7434774,-7892452,-7679285
2035843880,1978106,-77115,3133589,-5322633,3100902,-6597696,-7437666,-7899981,-7686606
2035843881,1978107,-58752,3159091,-5325782,3095353,-6602344,-7440291,-7907208,-7693610
2035843882,1978108,-48764,3174768,-5327828,3089712,-6605556,-7442284,-7913656,-7699236
2035843883,1978109,-47210,3179573,-5328931,3084884,-6607326,-7443681,-7919224,-7703277
2035843884,1978110,-50724,3177437,-5329303,3079730,-6608132,-7444580,-7923992,-7706112
2035843885,1978111,-60181,3167854,-5328955,3072553,-6607918,-7444876,-7927491,-7707552
2035843886,1978112,-100755,3129231,-5328068,3043768,-6606437,-7443951,-7923664,-7704222
2035843887,1978113,-153514,3087801,-5326693,3010240,-6603914,-7441647,-7910736,-7695724
2035843888,1978114,-170188,3073238,-5325352,3008480,-6601808,-7439912,-7901491,-7689752
2035843889,1978115,-185541,3054264,-5322674,3009980,-6598349,-7437589,-7893291,-7683326
2035843890,1978116,-204718,3032403,-5319304,3011560,-6593986,-7435061,-7885225,-7676007
2035843891,1978117,-220601,3021656,-5316088,3016678,-6589697,-7432484,-7877297,-7668772
2035843892,1978118,-229197,3010779,-5313797,3025561,-6586492,-7430301,-7870019,-7662754
2035843893,1978119,-231591,3006760,-5312717,3035941,-6584736,-7428852,-7863834,-7658528
2035843894,1978120,-229643,3008924,-5312266,3045974,-6583907,-7427877,-7858569,-7655591
2035843895,1978121,-207223,3026671,-5312517,3064204,-6584171,-7427887,-7857847,-7655998
2035843896,1978122,-152400,3066506,-5313492,3100893,-6585851,-7429592,-7868262,-7663118
2035843897,1978123,-129083,3075935,-5314626,3108848,-6587614,-7431364,-7878267,-7669595
2035843898,1978124,-119101,3083076,-5315939,3104253,-6589579,-7432964,-7885272,-7674377
2035843899,1978125,-102084,3102191,-5318263,3101259,-6592970,-7434960,-7892027,-7679936
2035843900,1978126,-80477,3129899,-5321564,3098263,-6597624,-7437421,-7899136,-7686807
2035843901,1978127,-62028,3155527,-5324832,3092648,-6602400,-7440162,-7906479,-7693941
2035843902,1978128,-51811,3171478,-5327174,3086916,-6605948,-7442469,-7913241,-7699897
2035843903,1978129,-50139,3176386,-5328254,3082691,-6607707,-7443822,-7918781,-7703911
2035843904,1978130,-53607,3174347,-5328551,3077349,-6608419,-7444628,-7923468,-7706676
2035843905,1978131,-62600,3165243,-5328126,3070303,-6608140,-7444850,-7926963,-7708103
2035843906,1978132,-101657,3128141,-5327340,3042557,-6606811,-7444080,-7923662,-7705127
2035843907,1978133,-155509,3085658,-5325933,3008047,-6604242,-7441747,-7910739,-7696583
2035843908,1978134,-172868,3070423,-5324616,3005666,-6602137,-7440009,-7901350,-7690540
2035843909,1978135,-188082,3051616,-5322244,3007187,-6598989,-7437968,-7893409,-7684410
2035843910,1978136,-207146,3029892,-5318655,3008779,-6594419,-7435229,-7885127,-7676875
2035843911,1978137,-223074,3019137,-5315276,3013899,-6589954,-7432494,-7877034,-7669475
2035843912,1978138,-231866,3008093,-5313014,3022739,-6586766,-7430349,-7869784,-7663475
2035843913,1978139,-234394,3003925,-5311901,3033103,-6584979,-7428871,-7863556,-7659192
2035843914,1978140,-232624,3005906,-5311576,3043124,-6584269,-7428034,-7858404,-7656364
2035843915,1978141,-211080,3022776,-5311867,3060768,-6584568,-7428075,-7857561,-7656707
2035843916,1978142,-156454,3064885,-5312881,3097386,-6586275,-7429799,-7867811,-7663765
2035843917,1978143,-132119,3075628,-5313839,3106307,-6587878,-7431413,-7877752,-7670141
2035843918,1978144,-122184,3080653,-5315068,3101783,-6589749,-7432933,-7884714,-7674859
2035843919,1978145,-105469,3099458,-5317459,3098771,-6593197,-7435012,-7891561,-7680472
2035843920,1978146,-83907,3127078,-5320795,3095840,-6597894,-7437512,-7898696,-7687368
2035843921,1978147,-65271,3152853,-5324072,3090267,-6602660,-7440223,-7906025,-7694492
2035843922,1978148,-54817,3169058,-5326304,3084255,-6606100,-7442423,-7912684,-7700352
2035843923,1978149,-52847,3174374,-5327566,3079294,-6608027,-7443946,-7918401,-7704571
2035843924,1978150,-56177,3172441,-5327964,3074259,-6608872,-7444866,-7923200,-7707452
2035843925,1978151,-65011,3163516,-5327609,3067343,-6608678,-7445154,-7926789,-7708964
2035843926,1978152,-103117,3126305,-5326534,3040322,-6607060,-7444102,-7923411,-7705810
2035843927,1978153,-157496,3082914,-5325146,3005178,-6604522,-7441806,-7910581,-7697321
2035843928,1978154,-175329,3068459,-5323796,3002373,-6602380,-7440027,-7901071,-7691197
2035843929,1978155,-190479,3049922,-5321495,3003898,-6599303,-7438037,-7893168,-7685142
2035843930,1978156,-209504,3029864,-5318036,3005515,-6594861,-7435417,-7885001,-7677729
2035843931,1978157,-225492,3018534,-5314682,3010686,-6590436,-7432721,-7876944,-7670352
2035843932,1978158,-234512,3006565,-5312335,3019434,-6587159,-7430498,-7869607,-7664258
2035843933,1978159,-237220,3002087,-5311261,3029748,-6585392,-7429072,-7863413,-7659994
2035843934,1978160,-235333,3004104,-5310794,3039895,-6584541,-7428097,-7858117,-7657015
2035843935,1978161,-212992,3021649,-5310949,3058198,-6584696,-7428004,-7857290,-7657297
2035843936,1978162,-158152,3061346,-5311989,3094946,-6586439,-7429778,-7867751,-7664462
2035843937,1978163,-134870,3070663,-5312989,3102901,-6588077,-7431424,-7877615,-7670798
2035843938,1978164,-125192,3077494,-5314182,3098283,-6589912,-7432898,-7884494,-7675448
2035843939,1978165,-108661,3096024,-5316419,3095181,-6593200,-7434846,-7891180,-7680904
2035843940,1978166,-87210,3123501,-5319961,3092260,-6598097,-7437557,-7898506,-7687987
2035843941,1978167,-68392,3149489,-5323183,3086881,-6602813,-7440212,-7905746,-7695046
2035843942,1978168,-57671,3165974,-5325296,3080977,-6606137,-7442259,-7912257,-7700785
2035843943,1978169,-55496,3171489,-5326493,3076072,-6608016,-7443711,-7917898,-7704925
2035843944,1978170,-58721,3169704,-5326909,3071044,-6608872,-7444646,-7922704,-7707827
2035843945,1978171,-67338,3161046,-5326720,3064260,-6608846,-7445102,-7926494,-7709537
2035843946,1978172,-104393,3124866,-5325799,3038039,-6607406,-7444239,-7923544,-7706699
2035843947,1978173,-159437,3080796,-5324467,3002248,-6604927,-7441995,-7910792,-7698277
2035843948,1978174,-177804,3065821,-5323123,2999067,-6602792,-7440203,-7901184,-7692096
2035927784,1978175,-192766,3047516,-5320933,3000689,-6599821,-7438308,-7893370,-7686137
2035927785,1978176,-211750,3027560,-5317367,3002248,-6595283,-7435576,-7885086,-7678638
2035927786,1978177,-227797,3016191,-5313897,3007448,-6590733,-7432772,-7876900,-7671140
2035927787,1978178,-236809,3004150,-5311492,3016307,-6587387,-7430502,-7869517,-7664974
2035927788,1978179,-239654,2999598,-5310349,3026619,-6585550,-7429016,-7863260,-7660631
2035927789,1978180,-237942,3001532,-5309897,3036761,-6584706,-7428064,-7857972,-7657653
2035927790,1978181,-216129,3018624,-5310160,3054799,-6584971,-7428089,-7857172,-7657994
2035927791,1978182,-161456,3058222,-5311217,3091515,-6586734,-7429866,-7867566,-7665135
2035927792,1978183,-137819,3067857,-5312342,3099769,-6588477,-7431631,-7877584,-7671610
2035927793,1978184,-128156,3074592,-5313329,3095141,-6590086,-7432906,-7884268,-7676047
2035927794,1978185,-111716,3092853,-5315480,3092044,-6593282,-7434780,-7890871,-7681397
2035927795,1978186,-90280,3120201,-5319153,3089078,-6598298,-7437618,-7898327,-7688598
2035927796,1978187,-71415,3146228,-5322423,3083682,-6603069,-7440311,-7905606,-7695699
2035927797,1978188,-60608,3162933,-5324567,3078093,-6606441,-7442377,-7912141,-7701477
2035927798,1978189,-58637,3168294,-5325764,3073872,-6608346,-7443836,-7917791,-7705657
2035927799,1978190,-61951,3166510,-5326340,3068513,-6609355,-7444913,-7922751,-7708719
2035927800,1978191,-70800,3157623,-5326217,3061378,-6609400,-7445429,-7926524,-7710450
2035927801,1978192,-110244,3120175,-5325132,3033261,-6607762,-7444334,-7922772,-7707092
2035927802,1978193,-163657,3078224,-5323663,2999040,-6605137,-7441942,-7909805,-7698529
2035927803,1978194,-180609,3063605,-5322272,2996949,-6602975,-7440127,-7900406,-7692462
2035927804,1978195,-195350,3045601,-5319880,2998591,-6599837,-7438026,-7892454,-7686377
2035927805,1978196,-214314,3024153,-5316612,3000056,-6595599,-7435601,-7884522,-7679208
2035927806,1978197,-230611,3013043,-5313240,3004878,-6591144,-7432905,-7876487,-7671826
2035927807,1978198,-239896,3001379,-5311006,3013461,-6587972,-7430823,-7869310,-7665844
2035927808,1978199,-242857,2996651,-5309791,3023761,-6586053,-7429274,-7863000,-7661436
2035927809,1978200,-241209,2998424,-5309146,3033885,-6585004,-7428116,-7857524,-7658264
2035927810,1978201,-219926,3014959,-5309434,3051458,-6585291,-7428164,-7856651,-7658564
2035927811,1978202,-165290,3054486,-5310567,3088167,-6587111,-7430004,-7867002,-7665706
2035927812,1978203,-140966,3064847,-5311542,3097064,-6588731,-7431637,-7876975,-7672101
2035927813,1978204,-131334,3071485,-5312666,3092543,-6590464,-7433054,-7883831,-7676691
2035927814,1978205,-115070,3089515,-5314974,3089411,-6593802,-7435101,-7890615,-7682182
2035927815,1978206,-93613,3116778,-5318440,3086511,-6598600,-7437731,-7897852,-7689166
2035927816,1978207,-74509,3143018,-5321647,3081228,-6603311,-7440354,-7905059,-7696203
2035927817,1978208,-63496,3159919,-5323910,3075395,-6606811,-7442529,-7911702,-7702104
2035927818,1978209,-61103,3165788,-5325051,3070486,-6608651,-7443913,-7917288,-7706229
2035927819,1978210,-64274,3164226,-5325402,3065396,-6609464,-7444781,-7922038,-7709092
2035927820,1978211,-72484,3156080,-5325105,3058788,-6609358,-7445133,-7925766,-7710744
2035927821,1978212,-107982,3121547,-5324102,3033589,-6607872,-7444231,-7923132,-7708066
2035927822,1978213,-163909,3076666,-5322991,2996903,-6605605,-7442217,-7910740,-7699905
2035927823,1978214,-183098,3060999,-5321628,2993019,-6603430,-7440377,-7900943,-7693606
2035927824,1978215,-197765,3043187,-5319228,2994738,-6600268,-7438239,-7892852,-7687447
2035927825,1978216,-216757,3020294,-5315809,2996200,-6595878,-7435657,-7884711,-7680105
2035927826,1978217,-233317,3008963,-5312456,3000838,-6591442,-7432989,-7876661,-7672721
2035927827,1978218,-242741,2998038,-5310114,3009358,-6588159,-7430809,-7869355,-7666595
2035927828,1978219,-245831,2993145,-5308877,3019570,-6586214,-7429233,-7863000,-7662134
2035927829,1978220,-244464,2994669,-5308335,3029834,-6585250,-7428173,-7857559,-7659005
2035927830,1978221,-226307,3009572,-5308531,3045924,-6585387,-7428051,-7855892,-7658799
2035927831,1978222,-171983,3049528,-5309626,3082719,-6587145,-7429795,-7865558,-7665587
2035927832,1978223,-144419,3062207,-5310731,3094246,-6588922,-7431596,-7876065,-7672386
2035927833,1978224,-134699,3068010,-5311906,3089742,-6590718,-7433084,-7883107,-7677112
2035927834,1978225,-118663,3085768,-5314058,3086488,-6593895,-7434997,-7889821,-7682487
2035927835,1978226,-97276,3112932,-5317507,3083618,-6598684,-7437634,-7897101,-7689464
2035927836,1978227,-78114,3139250,-5320874,3078388,-6603562,-7440415,-7904500,-7696676
2035927837,1978228,-66947,3156376,-5323196,3072579,-6607129,-7442640,-7911197,-7702659
2035927838,1978229,-64456,3162391,-5324347,3067689,-6608984,-7444014,-7916791,-7706800
2035927839,1978230,-67544,3160862,-5324762,3062643,-6609860,-7444950,-7921631,-7709750
2035927840,1978231,-75754,3152656,-5324521,3055939,-6609807,-7445352,-7925405,-7711450
2035927841,1978232,-112336,3117029,-5323709,3029849,-6608501,-7444616,-7922685,-7708817
2035927842,1978233,-167716,3072698,-5322342,2993739,-6605973,-7442326,-7909936,-7700369
2035927843,1978234,-186145,3057760,-5320976,2990378,-6603810,-7440499,-7900284,-7694157
2035927844,1978235,-200668,3040138,-5318764,2992080,-6600852,-7438540,-7892418,-7688227
2035927845,1978236,-219591,3017446,-5315238,2993481,-6596367,-7435838,-7884186,-7680803
2035927846,1978237,-236207,3006121,-5311694,2998124,-6591749,-7433004,-7876001,-7673257
2035927847,1978238,-245840,2994939,-5309401,3006643,-6588503,-7430894,-7868772,-7667191
2035927848,1978239,-248900,2989971,-5308199,3016948,-6586581,-7429357,-7862476,-7662759
2035927849,1978240,-247561,2991476,-5307783,3027236,-6585743,-7428432,-7857168,-7659751
2035927850,1978241,-229821,3006034,-5308037,3043054,-6585953,-7428385,-7855519,-7659579
2035927851,1978242,-175746,3045786,-5308985,3079758,-6587554,-7429966,-7864941,-7666164
2035927852,1978243,-147798,3058928,-5310022,3091683,-6589257,-7431705,-7875430,-7672926
2035927853,1978244,-138151,3064661,-5311127,3087228,-6590972,-7433131,-7882424,-7677584
2035927854,1978245,-122277,3082171,-5313327,3084029,-6594183,-7435106,-7889201,-7682997
2035927855,1978246,-100890,3109263,-5316778,3081214,-6598966,-7437735,-7896476,-7689977
2035927856,1978247,-81549,3135787,-5320033,3075938,-6603721,-7440379,-7903732,-7697058
2035927857,1978248,-70053,3153286,-5322276,3069949,-6607221,-7442522,-7910359,-7702982
2035927858,1978249,-67510,3159460,-5323546,3065596,-6609227,-7444044,-7916097,-7707286
2035927859,1978250,-70518,3158035,-5324109,3060379,-6610245,-7445110,-7921082,-7710377
2035927860,1978251,-78404,3150221,-5323936,3053784,-6610270,-7445578,-7924972,-7712175
2035927861,1978252,-113201,3116339,-5322967,3029023,-6608840,-7444736,-7922526,-7709633
2035927862,1978253,-169336,3071223,-5321617,2992038,-6606334,-7442481,-7909932,-7701263
2035927863,1978254,-188832,3055298,-5320314,2987796,-6604209,-7440685,-7900139,-7694991
2035927864,1978255,-203298,3037836,-5318013,2989525,-6601154,-7438619,-7892122,-7688954
2035927865,1978256,-222216,3015166,-5314536,2990857,-6596732,-7435983,-7883939,-7681590
2035927866,1978257,-238937,3003703,-5311202,2995381,-6592309,-7433351,-7875940,-7674232
2035927867,1978258,-248606,2992394,-5308781,3003931,-6588931,-7431116,-7868572,-7668019
2035927868,1978259,-251837,2987211,-5307504,3014183,-6586934,-7429512,-7862193,-7663493
2035927869,1978260,-250554,2988531,-5306936,3024392,-6585947,-7428444,-7856730,-7660324
2035927870,1978261,-232565,3003244,-5307094,3040409,-6586046,-7428299,-7855044,-7660082
2035927871,1978262,-178387,3044492,-5308143,3077171,-6587752,-7430001,-7864639,-7666799
2035927872,1978263,-150721,3059524,-5309232,3088929,-6589505,-7431779,-7875112,-7673561
2035927873,1978264,-141141,3062452,-5310370,3084471,-6591234,-7433231,-7882133,-7678246
2036017699,1978265,-125506,3079476,-5312469,3081154,-6594351,-7435126,-7888814,-7683545
2036017700,1978266,-104216,3106361,-5315794,3078281,-6599012,-7437650,-7895954,-7690382
2036017701,1978267,-84784,3132971,-5319192,3073086,-6603893,-7440416,-7903322,-7697587
2036017702,1978268,-73129,3150619,-5321541,3067125,-6607505,-7442656,-7910043,-7703614
2036017703,1978269,-70447,3156975,-5322649,3062869,-6609364,-7444005,-7915617,-7707763
2036017704,1978270,-73511,3155582,-5323220,3057651,-6610398,-7445084,-7920610,-7710877
2036017705,1978271,-81142,3148021,-5322990,3051250,-6610370,-7445497,-7924472,-7712644
2036017706,1978272,-114122,3116074,-5322108,3027873,-6609059,-7444780,-7922603,-7710475
2036017707,1978273,-171195,3070124,-5320851,2990043,-6606659,-7442634,-7910276,-7702259
2036017708,1978274,-191992,3052896,-5319609,2984779,-6604587,-7440872,-7900313,-7695908
2036017709,1978275,-206367,3035667,-5317435,2986485,-6601652,-7438896,-7892351,-7689967
2036017710,1978276,-225239,3013122,-5313982,2987773,-6597257,-7436272,-7884146,-7682610
2036017711,1978277,-242104,3001599,-5310405,2992256,-6592602,-7433412,-7875904,-7675015
2036017712,1978278,-251932,2990182,-5307872,3000716,-6589106,-7431074,-7868427,-7668679
2036017713,1978279,-255252,2984881,-5306668,3011022,-6587174,-7429549,-7862112,-7664211
2036017714,1978280,-254081,2986062,-5306285,3021193,-6586364,-7428659,-7856806,-7661209
2036017715,1978281,-237642,2999201,-5306356,3035974,-6586376,-7428419,-7854691,-7660672
2036017716,1978282,-184194,3038235,-5307462,3072376,-6588089,-7430116,-7863860,-7667177
2036017717,1978283,-154624,3052946,-5308508,3085697,-6589809,-7431869,-7874526,-7674057
2036017718,1978284,-145039,3058496,-5309600,3081182,-6591510,-7433290,-7881596,-7678749
2036017719,1978285,-129534,3075424,-5311582,3077883,-6594501,-7435089,-7888206,-7683951
2036017720,1978286,-108218,3102316,-5314934,3075134,-6599174,-7437637,-7895391,-7690809
2036017721,1978287,-88653,3129074,-5318356,3070139,-6604097,-7440433,-7902802,-7698059
2036017722,1978288,-76938,3146893,-5320936,3064543,-6607941,-7442892,-7909759,-7704336
2036017723,1978289,-74050,3153504,-5322282,3059729,-6610014,-7444453,-7915564,-7708717
2036017724,1978290,-76840,3152418,-5322546,3054678,-6610760,-7445226,-7920253,-7711539
2036017725,1978291,-84471,3144846,-5322338,3048193,-6610761,-7445650,-7924127,-7713329
2036017726,1978292,-118456,3111879,-5321447,3024019,-6609433,-7444900,-7921972,-7711004
2036017727,1978293,-175037,3066449,-5320051,2986661,-6606886,-7442609,-7909414,-7702622
2036017728,1978294,-195028,3050086,-5318894,2981971,-6604909,-7440956,-7899686,-7696453
2036017729,1978295,-209181,3033126,-5316686,2983808,-6601963,-7438949,-7891738,-7690532
2036017730,1978296,-227937,3010787,-5313353,2985146,-6597684,-7436429,-7883682,-7683314
2036017731,1978297,-244969,2999048,-5309901,2989430,-6593150,-7433710,-7875591,-7675851
2036017732,1978298,-255055,2987299,-5307249,2997759,-6589541,-7431282,-7868026,-7669400
2036017733,1978299,-258691,2981676,-5306058,3007940,-6587612,-7429791,-7861747,-7664943
2036017734,1978300,-257711,2982655,-5305544,3018161,-6586667,-7428773,-7856312,-7661794
2036017735,1978301,-242106,2994948,-5305531,3032402,-6586579,-7428420,-7853957,-7661081
2036017736,1978302,-189077,3035463,-5306536,3068555,-6588186,-7429989,-7862774,-7667357
2036017737,1978303,-158199,3052796,-5307534,3083099,-6589877,-7431723,-7873521,-7674283
2036017738,1978304,-148495,3055953,-5308771,3078728,-6591689,-7433291,-7880774,-7679137
2036017739,1978305,-133087,3072654,-5310830,3075329,-6594737,-7435172,-7887487,-7684416
2036017740,1978306,-111885,3099428,-5314149,3072552,-6599378,-7437697,-7894658,-7691243
2036059660,1978307,-92231,3126233,-5317469,3067439,-6604187,-7440377,-7901953,-7698379
2036059661,1978308,-80289,3144287,-5320037,3061568,-6608036,-7442816,-7908900,-7704654
2036059662,1978309,-77316,3150981,-5321204,3057412,-6609980,-7444218,-7914545,-7708899
2036059663,1978310,-80135,3149865,-5321661,3052254,-6610897,-7445158,-7919424,-7711904
2036059664,1978311,-87344,3142791,-5321552,3046024,-6611012,-7445690,-7923466,-7713852
2036059665,1978312,-118409,3111919,-5320677,3024032,-6609752,-7445033,-7922057,-7711966
2036059666,1978313,-176191,3064333,-5319170,2985360,-6607107,-7442654,-7909687,-7703595
2036059667,1978314,-198300,3047162,-5317975,2978882,-6605069,-7440912,-7899569,-7697167
2036059668,1978315,-212443,3030196,-5315869,2980636,-6602211,-7438991,-7891626,-7691290
2036059669,1978316,-231141,3009319,-5312297,2982001,-6597694,-7436230,-7883285,-7683822
2036059670,1978317,-248088,2997543,-5308918,2986353,-6593238,-7433579,-7875237,-7676415
2036059671,1978318,-258269,2984681,-5306436,2994596,-6589792,-7431321,-7867816,-7670111
2036059672,1978319,-261869,2978937,-5305064,3004745,-6587684,-7429655,-7861342,-7665452
2036059673,1978320,-260964,2979796,-5304693,3015028,-6586869,-7428775,-7856027,-7662424
2036059674,1978321,-246041,2991367,-5304831,3029616,-6586899,-7428553,-7853706,-7661775
2036059675,1978322,-193537,3031315,-5305836,3065483,-6588506,-7430125,-7862341,-7667934
2036059676,1978323,-161997,3049373,-5306798,3080564,-6590170,-7431836,-7873126,-7674879
2036059677,1978324,-152301,3052514,-5307900,3076367,-6591854,-7433276,-7880296,-7679633
2036059678,1978325,-137099,3068944,-5309917,3072992,-6594856,-7435127,-7886986,-7684858
2036059679,1978326,-115934,3095536,-5313280,3070241,-6599531,-7437702,-7894191,-7691712
2036059680,1978327,-96192,3122531,-5316654,3065274,-6604393,-7440421,-7901517,-7698886
2036059681,1978328,-84013,3140846,-5319099,3059349,-6608152,-7442754,-7908359,-7705074
2036059682,1978329,-80600,3148013,-5320496,3054376,-6610291,-7444344,-7914208,-7709524
2036059683,1978330,-83189,3147211,-5321084,3049523,-6611364,-7445426,-7919224,-7712679
2036059684,1978331,-90238,3140408,-5320852,3043381,-6611356,-7445837,-7923152,-7714513
2036059685,1978332,-120665,3110243,-5319919,3021778,-6610054,-7445140,-7921813,-7712651
2036059686,1978333,-178489,3062617,-5318572,2982927,-6607581,-7442931,-7909688,-7704495
2036059687,1978334,-200953,3045151,-5317171,2976119,-6605321,-7440972,-7899299,-7697811
2036059688,1978335,-214970,3028549,-5315160,2977942,-6602565,-7439118,-7891413,-7692032
2036059689,1978336,-233718,3005263,-5311854,2979188,-6598322,-7436619,-7883331,-7684842
2036059690,1978337,-250944,2992874,-5308294,2983323,-6593675,-7433797,-7875109,-7677251
2036059691,1978338,-261316,2981838,-5305742,2991559,-6590147,-7431480,-7867639,-7670860
2036059692,1978339,-265167,2975821,-5304406,3001677,-6588066,-7429855,-7861193,-7666224
2036059693,1978340,-264358,2976558,-5303847,3011993,-6587067,-7428806,-7855697,-7663008
2036059694,1978341,-249719,2989192,-5303892,3026444,-6586995,-7428487,-7853203,-7662211
2036059695,1978342,-196904,3028550,-5304934,3062632,-6588634,-7430077,-7861897,-7668436
2036059696,1978343,-165428,3044706,-5305989,3077624,-6590394,-7431886,-7872800,-7675471
2036059697,1978344,-155770,3049083,-5307041,3073324,-6592018,-7433282,-7879900,-7680152
2036059698,1978345,-140744,3065243,-5309033,3069905,-6594977,-7435141,-7886563,-7685342
2036059699,1978346,-119627,3091666,-5312369,3067146,-6599629,-7437689,-7893751,-7692157
2036059700,1978347,-99739,3118684,-5315854,3062171,-6604605,-7440497,-7901183,-7699445
2036059701,1978348,-87403,3137232,-5318322,3056233,-6608379,-7442826,-7908012,-7705636
2036059702,1978349,-83953,3144506,-5319733,3051200,-6610550,-7444431,-7913871,-7710117
2036059703,1978350,-86519,3143733,-5320045,3046248,-6611355,-7445236,-7918617,-7713012
2036059704,1978351,-93693,3136788,-5320010,3039904,-6611553,-7445830,-7922726,-7715050
2036059705,1978352,-125229,3105536,-5319111,3017423,-6610286,-7445142,-7921181,-7713096
2036059706,1978353,-182755,3058273,-5317556,2978852,-6607595,-7442718,-7908709,-7704662
2036059707,1978354,-204391,3041658,-5316312,2972731,-6605507,-7440933,-7898615,-7698244
2036059708,1978355,-218334,3025243,-5314441,2974623,-6602899,-7439206,-7890905,-7692646
2036059709,1978356,-236989,3002126,-5311127,2975902,-6598666,-7436691,-7882845,-7685471
2036059710,1978357,-254332,2989623,-5307617,2979922,-6594077,-7433931,-7874716,-7677941
2036059711,1978358,-264777,2978498,-5304966,2988136,-6590439,-7431540,-7867168,-7671466
2036059712,1978359,-268656,2972389,-5303598,2998253,-6588318,-7429894,-7860714,-7666799
2036059713,1978360,-267839,2973067,-5303014,3008573,-6587286,-7428809,-7855186,-7663541
2036059714,1978361,-254224,2984666,-5303111,3022204,-6587261,-7428529,-7852536,-7662674
2036059715,1978362,-202281,3024443,-5304021,3057858,-6588742,-7429959,-7860672,-7668531
2036059716,1978363,-168816,3044723,-5305082,3074658,-6590511,-7431786,-7871746,-7675682
2036059717,1978364,-158957,3046568,-5306199,3070597,-6592197,-7433252,-7879012,-7680480
2036059718,1978365,-144052,3062353,-5307942,3067121,-6594905,-7434873,-7885492,-7685448
2036059719,1978366,-122996,3088634,-5311346,3064422,-6599614,-7437497,-7892762,-7692322
2036059720,1978367,-102993,3115801,-5314910,3059520,-6604667,-7440381,-7900272,-7699691
2036059721,1978368,-90397,3134625,-5317285,3053347,-6608389,-7442635,-7907036,-7705840
2036059722,1978369,-86800,3142141,-5318594,3048945,-6610453,-7444128,-7912789,-7710234
2036059723,1978370,-89368,3141387,-5319243,3043851,-6611586,-7445249,-7917877,-7713466
2036059724,1978371,-95987,3135010,-5319059,3037889,-6611646,-7445699,-7921912,-7715391
2036059725,1978372,-122831,3107813,-5318212,3019068,-6610499,-7445184,-7921484,-7714104
2036059726,1978373,-181278,3058330,-5316839,2979339,-6608009,-7443002,-7909876,-7706174
2036059727,1978374,-206825,3039196,-5315468,2969984,-6605739,-7441021,-7899052,-7699226
2036059728,1978375,-220731,3022892,-5313606,2971804,-6603134,-7439284,-7891183,-7693551
2036059729,1978376,-239366,3000934,-5310339,2973083,-6598942,-7436806,-7883076,-7686383
2036059730,1978377,-256731,2988857,-5306837,2977163,-6594357,-7434045,-7874897,-7678830
2036059731,1978378,-267370,2976337,-5304207,2985306,-6590746,-7431682,-7867339,-7672343
2036059732,1978379,-271369,2970014,-5302773,2995401,-6588548,-7429981,-7860778,-7667564
2036059733,1978380,-270706,2970484,-5302113,3005706,-6587437,-7428819,-7855142,-7664196
2036059734,1978381,-257295,2981878,-5302223,3019313,-6587414,-7428546,-7852462,-7663306
2036059735,1978382,-205651,3019946,-5303237,3054763,-6588994,-7430071,-7860637,-7669229
2036059736,1978383,-172169,3037968,-5304261,3071505,-6590721,-7431855,-7871671,-7676356
2036059737,1978384,-162497,3042326,-5305304,3067296,-6592335,-7433255,-7878857,-7681079
2036059738,1978385,-147794,3057976,-5307293,3063742,-6595284,-7435126,-7885577,-7686272
2036059739,1978386,-126853,3084156,-5310635,3061004,-6599922,-7437705,-7892786,-7693075
2036059740,1978387,-106785,3111339,-5314089,3056121,-6604864,-7440476,-7900171,-7700328
2036059741,1978388,-93932,3130453,-5316495,3050024,-6608607,-7442726,-7906924,-7706484
2036059742,1978389,-90231,3138055,-5317953,3045611,-6610847,-7444366,-7912834,-7711038
2036059743,1978390,-92785,3137346,-5318487,3040499,-6611869,-7445369,-7917799,-7714169
2036059744,1978391,-99755,3130688,-5318377,3034156,-6612014,-7445895,-7921848,-7716149
2036059745,1978392,-130800,3099964,-5317599,3011950,-6610866,-7445324,-7920524,-7714372
2036059746,1978393,-188531,3052554,-5316274,2973203,-6608411,-7443132,-7908322,-7706201
2036059747,1978394,-210369,3035767,-5315018,2966866,-6606319,-7441335,-7898177,-7699754
2036059748,1978395,-224064,3019659,-5313041,2968691,-6603612,-7439468,-7890347,-7694061
2036059749,1978396,-242577,2996754,-5309733,2969848,-6599389,-7436946,-7882305,-7686929
2036059750,1978397,-260087,2984113,-5306259,2973641,-6594842,-7434244,-7874246,-7679464
2036059751,1978398,-271021,2972483,-5303550,2981470,-6591149,-7431821,-7866672,-7672927
2036059752,1978399,-275255,2965976,-5302179,2991495,-6589018,-7430194,-7860226,-7668228
2036059753,1978400,-274721,2966335,-5301647,3001904,-6588017,-7429156,-7854726,-7664972
2036059754,1978401,-263646,2976503,-5301660,3014471,-6587862,-7428744,-7851519,-7663734
2036059755,1978402,-213969,3014828,-5302537,3048828,-6589260,-7430056,-7858707,-7669063
2036155569,1978403,-176714,3039136,-5303630,3068694,-6591104,-7431959,-7870168,-7676507
2036155570,1978404,-166369,3040083,-5304561,3065102,-6592606,-7433266,-7877461,-7681254
2036155571,1978405,-151863,3055131,-5306504,3061500,-6595487,-7435117,-7884229,-7686442
2036155572,1978406,-130931,3081168,-5309741,3058741,-6600031,-7437603,-7891402,-7693171
2036155573,1978407,-110714,3108474,-5313156,3053911,-6604935,-7440343,-7898779,-7700394
2036155574,1978408,-97727,3127777,-5315761,3047861,-6608892,-7442796,-7905771,-7706785
2036155575,1978409,-93884,3135626,-5317202,3043479,-6611126,-7444407,-7911681,-7711364
2036155576,1978410,-96301,3135169,-5317632,3038443,-6612050,-7445317,-7916557,-7714399
2036155577,1978411,-102716,3129078,-5317666,3032508,-6612346,-7445986,-7920841,-7716575
2036155578,1978412,-128471,3103024,-5316946,3014368,-6611334,-7445599,-7920792,-7715572
2036155579,1978413,-186907,3053659,-5315449,2974441,-6608733,-7443321,-7909277,-7707629
2036155580,1978414,-213422,3033584,-5314072,2964188,-6606448,-7441322,-7898319,-7700599
2036155581,1978415,-227083,3017674,-5312122,2966068,-6603754,-7439461,-7890303,-7694817
2036155582,1978416,-245560,2996051,-5309046,2967377,-6599749,-7437152,-7882372,-7687851
2036155583,1978417,-262989,2983896,-5305544,2971420,-6595162,-7434409,-7874206,-7680314
2036155584,1978418,-273956,2970969,-5302769,2979412,-6591410,-7431936,-7866529,-7673671
2036155585,1978419,-278228,2964366,-5301490,2989463,-6589363,-7430416,-7860145,-7669038
2036155586,1978420,-277710,2964631,-5300919,2999886,-6588317,-7429343,-7854596,-7665741
2036155587,1978421,-265691,2974618,-5300969,3013348,-6588220,-7428995,-7851609,-7664627
2036155588,1978422,-215288,3012847,-5301760,3048216,-6589545,-7430244,-7859056,-7670042
2036155589,1978423,-179769,3035047,-5302761,3066616,-6591282,-7432038,-7870254,-7677274
2036155590,1978424,-169832,3036851,-5303879,3062677,-6592955,-7433524,-7877633,-7682149
2036155591,1978425,-155527,3051832,-5305754,3059036,-6595759,-7435311,-7884296,-7687227
2036155592,1978426,-134700,3077653,-5308847,3056279,-6600136,-7437647,-7891272,-7693761
2036155593,1978427,-114427,3105005,-5312386,3051491,-6605145,-7440474,-7898717,-7701079
2036155594,1978428,-101232,3124493,-5314876,3045389,-6609000,-7442802,-7905560,-7707342
2036155595,1978429,-97021,3132797,-5316386,3040221,-6611317,-7444486,-7911516,-7711983
2036155596,1978430,-99261,3132509,-5316812,3035353,-6612244,-7445385,-7916382,-7715027
2036155597,1978431,-105582,3126584,-5316801,3029461,-6612502,-7446006,-7920617,-7717171
2036155598,1978432,-130994,3100953,-5316108,3011571,-6611550,-7445672,-7920695,-7716252
2036155599,1978433,-189521,3051511,-5314926,2971514,-6609279,-7443706,-7909547,-7708666
2036155600,1978434,-216419,3031095,-5313622,2960974,-6607062,-7441764,-7898603,-7701678
2036155601,1978435,-229932,3015418,-5311681,2962983,-6604384,-7439894,-7890572,-7695908
2036155602,1978436,-248316,2993967,-5308364,2964229,-6600156,-7437331,-7882396,-7688716
2036155603,1978437,-265902,2981768,-5304742,2968088,-6595446,-7434482,-7874129,-7681065
2036155604,1978438,-277050,2968593,-5301974,2975889,-6591692,-7432029,-7866465,-7674427
2036155605,1978439,-281507,2961714,-5300706,2985876,-6589659,-7430518,-7860092,-7669794
2036155606,1978440,-281042,2961895,-5300180,2996336,-6588651,-7429486,-7854565,-7666510
2036155607,1978441,-270174,2970682,-5300029,3008866,-6588325,-7428909,-7851129,-7665042
2036155608,1978442,-221201,3007424,-5300898,3042746,-6589694,-7430188,-7858105,-7670224
2036155609,1978443,-183451,3031853,-5301962,3063078,-6591506,-7432063,-7869546,-7677652
2036155610,1978444,-173128,3034016,-5303074,3059496,-6593194,-7433569,-7877058,-7682607
2036155611,1978445,-158893,3048836,-5304816,3055829,-6595847,-7435241,-7883643,-7687575
2036155612,1978446,-138095,3074588,-5308005,3053146,-6600316,-7437689,-7890753,-7694212
2036155613,1978447,-117711,3102028,-5311404,3048499,-6605192,-7440372,-7898062,-7701393
2036155614,1978448,-104389,3121741,-5314128,3042439,-6609277,-7442912,-7905141,-7707904
2036155615,1978449,-99994,3130186,-5315601,3037302,-6611567,-7444547,-7911068,-7712530
2036155616,1978450,-102134,3129981,-5316077,3032399,-6612560,-7445506,-7916012,-7715649
2036155617,1978451,-108311,3124174,-5315959,3026588,-6612712,-7446027,-7920159,-7717697
2036155618,1978452,-132495,3099766,-5315355,3009576,-6611860,-7445802,-7920591,-7717031
2036155619,1978453,-190832,3050505,-5314062,2969448,-6609486,-7443754,-7909596,-7709464
2036155620,1978454,-218918,3028912,-5312564,2957914,-6607062,-7441585,-7898287,-7702162
2036155621,1978455,-232469,3013336,-5310821,2959878,-6604589,-7439904,-7890400,-7696569
2036155622,1978456,-250757,2990099,-5307578,2961131,-6600436,-7437420,-7882273,-7689452
2036155623,1978457,-268607,2976248,-5304097,2964745,-6595871,-7434716,-7874136,-7681927
2036155624,1978458,-280051,2965287,-5301411,2972419,-6592194,-7432352,-7866552,-7675365
2036155625,1978459,-284625,2958301,-5299939,2982420,-6589936,-7430651,-7859970,-7670507
2036155626,1978460,-284302,2958352,-5299271,2992844,-6588777,-7429469,-7854294,-7667066
2036155627,1978461,-274152,2967485,-5299206,3004841,-6588551,-7428977,-7850816,-7665609
2036155628,1978462,-225847,3003423,-5300039,3038332,-6589862,-7430189,-7857457,-7670604
2036215512,1978463,-187106,3026356,-5300981,3059561,-6591534,-7431939,-7868859,-7677966
2036215513,1978464,-176755,3029963,-5302112,3055982,-6593234,-7433459,-7876447,-7682959
2036215514,1978465,-162831,3044542,-5304005,3052231,-6596044,-7435311,-7883219,-7688082
2036215515,1978466,-142165,3070099,-5307339,3049476,-6600665,-7437922,-7890484,-7694862
2036215516,1978467,-121701,3097619,-5310792,3044841,-6605616,-7440664,-7897851,-7702112
2036215517,1978468,-108161,3117578,-5313122,3038915,-6609313,-7442794,-7904527,-7708227
2036215518,1978469,-103611,3126212,-5314697,3033824,-6611688,-7444496,-7910541,-7712941
2036215519,1978470,-105659,3126159,-5315477,3028915,-6612989,-7445754,-7915785,-7716372
2036215520,1978471,-111915,3120359,-5315281,3023024,-6613073,-7446190,-7919833,-7718343
2036215521,1978472,-138532,3093477,-5314687,3004044,-6612202,-7445924,-7919727,-7717374
2036215522,1978473,-197136,3043973,-5313321,2963971,-6609727,-7443739,-7908134,-7709472
2036215523,1978474,-222706,3024980,-5311971,2954476,-6607479,-7441765,-7897346,-7702584
2036215524,1978475,-236004,3009703,-5310077,2956411,-6604866,-7439929,-7889434,-7696937
2036215525,1978476,-254232,2988560,-5306931,2957596,-6600828,-7437539,-7881474,-7689973
2036215526,1978477,-271994,2976233,-5303300,2961353,-6596122,-7434696,-7873244,-7682341
2036215527,1978478,-283435,2962746,-5300456,2969120,-6592282,-7432186,-7865549,-7675632
2036215528,1978479,-288035,2955613,-5298918,2979060,-6589964,-7430435,-7858940,-7670716
2036215529,1978480,-287812,2955559,-5298412,2989446,-6588964,-7429439,-7853462,-7667452
2036215530,1978481,-277307,2965034,-5298554,3002557,-6588931,-7429166,-7850322,-7666259
2036215531,1978482,-228291,3002597,-5299453,3036875,-6590334,-7430486,-7857363,-7671494
2036215532,1978483,-190549,3027290,-5300352,3057127,-6591974,-7432192,-7868633,-7678741
2036215533,1978484,-180345,3027926,-5301519,3053593,-6593697,-7433749,-7876193,-7683729
2036215534,1978485,-166511,3042025,-5303231,3049821,-6596293,-7435418,-7882750,-7688642
2036215535,1978486,-145896,3067384,-5306322,3047119,-6600654,-7437779,-7889757,-7695140
2036215536,1978487,-125359,3095004,-5309922,3042551,-6605734,-7440648,-7897245,-7702508
2036215537,1978488,-111651,3115201,-5312551,3036636,-6609741,-7443074,-7904196,-7708934
2036215538,1978489,-107024,3123994,-5314146,3031478,-6612158,-7444807,-7910225,-7713698
2036215539,1978490,-109027,3124023,-5314699,3026583,-6613237,-7445831,-7915230,-7716897
2036215540,1978491,-115049,3118550,-5314581,3020796,-6613401,-7446338,-7919384,-7718967
2036215541,1978492,-139122,3094241,-5313781,3003708,-6612373,-7445924,-7919630,-7718124
2036215542,1978493,-197319,3045161,-5312412,2963645,-6609927,-7443801,-7908606,-7710514
2036215543,1978494,-225539,3023553,-5311231,2951981,-6607811,-7441951,-7897611,-7703536
2036215544,1978495,-238851,3008263,-5309324,2953915,-6605182,-7440079,-7889551,-7697810
2036215545,1978496,-257094,2985252,-5306130,2954994,-6601096,-7437632,-7881482,-7690777
2036215546,1978497,-275116,2971179,-5302712,2958374,-6596594,-7434999,-7873429,-7683332
2036215547,1978498,-286784,2959946,-5299919,2966020,-6592809,-7432556,-7865776,-7676662
2036215548,1978499,-291698,2952471,-5298296,2975848,-6590396,-7430730,-7859069,-7671632
2036215549,1978500,-291621,2952180,-5297751,2986258,-6589341,-7429679,-7853509,-7668289
2036215550,1978501,-282809,2959915,-5297739,2998133,-6589127,-7429216,-7849871,-7666739
2036215551,1978502,-236590,2994710,-5298502,3030443,-6590332,-7430304,-7855812,-7671296
2036215552,1978503,-195501,3022728,-5299524,3053614,-6592119,-7432160,-7867452,-7678864
2036215553,1978504,-184621,3024051,-5300651,3050606,-6593817,-7433708,-7875207,-7683961
2036215554,1978505,-170934,3037828,-5302475,3046772,-6596538,-7435509,-7881966,-7689029
2036215555,1978506,-150331,3063086,-5305597,3044094,-6600930,-7437914,-7889056,-7695589
2036215556,1978507,-129680,3090781,-5309126,3039644,-6605932,-7440719,-7896491,-7702885
2036215557,1978508,-115835,3111176,-5311683,3033810,-6609879,-7443066,-7903387,-7709256
2036215558,1978509,-111040,3120161,-5313112,3028749,-6612147,-7444624,-7909268,-7713875
2036215559,1978510,-112970,3120258,-5313764,3023804,-6613321,-7445741,-7914382,-7717191
2036215560,1978511,-118874,3114904,-5313641,3018036,-6613504,-7446247,-7918559,-7719282
2036215561,1978512,-142272,3091348,-5313014,3001435,-6612661,-7446018,-7919146,-7718707
2036215562,1978513,-200543,3042262,-5311756,2961285,-6610328,-7444024,-7908366,-7711274
2036215563,1978514,-229447,3019978,-5310476,2949018,-6608114,-7442061,-7897192,-7704143
2036215564,1978515,-242685,3004858,-5308710,2950932,-6605626,-7440316,-7889238,-7698554
2036215565,1978516,-260864,2982034,-5305575,2952053,-6601605,-7437914,-7881216,-7691592
2036215566,1978517,-279010,2967940,-5302035,2955384,-6596996,-7435170,-7873059,-7684039
2036215567,1978518,-290862,2956548,-5299263,2962891,-6593208,-7432746,-7865429,-7677369
2036215568,1978519,-295779,2949056,-5297562,2972772,-6590716,-7430856,-7858648,-7672269
2036215569,1978520,-295677,2948780,-5296763,2983320,-6589419,-7429572,-7852835,-7668669
2036215570,1978521,-286852,2956515,-5296666,2995243,-6589124,-7429033,-7849122,-7667029
2036215571,1978522,-240622,2991261,-5297547,3027648,-6590436,-7430236,-7855214,-7671711
2036215572,1978523,-199747,3019149,-5298780,3050694,-6592419,-7432304,-7867042,-7679468
2036215573,1978524,-188850,3020502,-5299741,3047781,-6593935,-7433675,-7874612,-7684384
2036215574,1978525,-175383,3034073,-5301381,3043935,-6596464,-7435314,-7881192,-7689254
2036215575,1978526,-154990,3059116,-5304507,3041269,-6600845,-7437737,-7888279,-7695785
2036215576,1978527,-134282,3086877,-5307973,3036809,-6605782,-7440459,-7895632,-7703017
2036215577,1978528,-120143,3107541,-5310599,3030669,-6609818,-7442872,-7902596,-7709470
2036215578,1978529,-115219,3116724,-5312397,3026103,-6612450,-7444777,-7908830,-7714461
2036215579,1978530,-117076,3116943,-5313032,3021156,-6613616,-7445869,-7913932,-7717776
2036215580,1978531,-123030,3111500,-5313099,3015150,-6613997,-7446565,-7918277,-7720059
2036215581,1978532,-147687,3086743,-5312346,2997579,-6613009,-7446179,-7918419,-7719181
2036215582,1978533,-206078,3037555,-5310949,2957489,-6610524,-7444007,-7907204,-7711468
2036215583,1978534,-233418,3016809,-5309674,2946443,-6608331,-7442077,-7896251,-7704502
2036287444,1978535,-246453,3001992,-5307950,2948388,-6605891,-7440370,-7888405,-7699007
2036287445,1978536,-264594,2979288,-5304843,2949424,-6601907,-7437991,-7880454,-7692104
2036287446,1978537,-282796,2965173,-5301312,2952690,-6597309,-7435277,-7872344,-7684576
2036287447,1978538,-294662,2953647,-5298395,2960291,-6593384,-7432726,-7864607,-7677773
2036287448,1978539,-299636,2946017,-5296809,2970239,-6590989,-7430948,-7857964,-7672772
2036287449,1978540,-299577,2945627,-5295976,2980766,-6589641,-7429629,-7852128,-7669138
2036287450,1978541,-290394,2953669,-5295956,2993026,-6589424,-7429186,-7848570,-7667612
2036287451,1978542,-243367,2989220,-5296876,3026077,-6590789,-7430459,-7854945,-7672459
2036287452,1978543,-203242,3016218,-5297943,3048494,-6592612,-7432347,-7866557,-7680001
2036287453,1978544,-192710,3017140,-5298896,3045259,-6594107,-7433699,-7874054,-7684872
2036287454,1978545,-179347,3030528,-5300699,3041396,-6596792,-7435519,-7880789,-7689895
2036287455,1978546,-158973,3055371,-5303839,3038695,-6601182,-7437970,-7887879,-7696419
2036287456,1978547,-138202,3083124,-5307162,3034329,-6605969,-7440538,-7895062,-7703489
2036287457,1978548,-123899,3103998,-5309851,3028188,-6610064,-7442997,-7902054,-7709990
2036287458,1978549,-118623,3113625,-5311472,3022879,-6612540,-7444724,-7908098,-7714801
2036287459,1978550,-120291,3114113,-5312290,3018036,-6613902,-7445999,-7913383,-7718306
2036287460,1978551,-125991,3108938,-5312240,3012300,-6614165,-7446580,-7917624,-7720483
2036287461,1978552,-148728,3086079,-5311400,2996118,-6613129,-7446142,-7918101,-7719776
2036287462,1978553,-206657,3037314,-5310260,2956060,-6610934,-7444278,-7907611,-7712572
2036287463,1978554,-236194,3014411,-5309044,2943182,-6608773,-7442377,-7896432,-7705459
2036287464,1978555,-249236,2999636,-5307239,2945126,-6606252,-7440559,-7888391,-7699824
2036287465,1978556,-267245,2977141,-5304109,2946234,-6602254,-7438151,-7880376,-7692897
2036287466,1978557,-285456,2962979,-5300548,2949418,-6597622,-7435410,-7872212,-7685331
2036287467,1978558,-297619,2951114,-5297793,2956752,-6593852,-7433034,-7864621,-7678679
2036287468,1978559,-302864,2943232,-5296074,2966554,-6591342,-7431139,-7857834,-7673542
2036287469,1978560,-302947,2942644,-5295440,2977072,-6590181,-7430009,-7852194,-7670079
2036287470,1978561,-295124,2950149,-5295301,2989040,-6589826,-7429431,-7848283,-7668287
2036287471,1978562,-250224,2984755,-5296140,3021141,-6591063,-7430552,-7853901,-7672684
2036287472,1978563,-207692,3014445,-5297137,3045505,-6592824,-7432391,-7865594,-7680276
2036287473,1978564,-196444,3014841,-5298171,3042881,-6594412,-7433847,-7873349,-7685328
2036287474,1978565,-183322,3027621,-5299688,3038926,-6596792,-7435392,-7879854,-7690080
2036287475,1978566,-163138,3052198,-5302958,3036185,-6601307,-7437980,-7887117,-7696756
2036287476,1978567,-142261,3080023,-5306489,3031843,-6606287,-7440739,-7894507,-7704033
2036287477,1978568,-127762,3101154,-5309107,3025776,-6610322,-7443109,-7901438,-7710477
2036287478,1978569,-122259,3111111,-5310815,3020543,-6612909,-7444936,-7907596,-7715419
2036287479,1978570,-123726,3111786,-5311472,3015756,-6614109,-7446040,-7912714,-7718765
2036287480,1978571,-129266,3106783,-5311421,3010068,-6614374,-7446607,-7916978,-7720957
2036287481,1978572,-150185,3085371,-5310854,2995231,-6613644,-7446506,-7918166,-7720781
2036287482,1978573,-207787,3035539,-5309632,2955213,-6611384,-7444607,-7908065,-7713734
2036287483,1978574,-239619,3011716,-5308206,2940424,-6608996,-7442461,-7896392,-7706231
2036287484,1978575,-252729,2997099,-5306425,2942279,-6606491,-7440647,-7888280,-7700574
2036287485,1978576,-270692,2975502,-5303472,2943339,-6602661,-7438381,-7880387,-7693801
2036287486,1978577,-288897,2962290,-5299960,2946609,-6598081,-7435696,-7872253,-7686273
2036287487,1978578,-301121,2948998,-5296926,2954019,-6594034,-7433054,-7864380,-7679311
2036287488,1978579,-306532,2940858,-5295176,2963844,-6591469,-7431138,-7857546,-7674111
2036287489,1978580,-306744,2940134,-5294401,2974271,-6590170,-7429884,-7851752,-7670499
2036287490,1978581,-298467,2948076,-5294184,2985925,-6589727,-7429212,-7847819,-7668649
2036287491,1978582,-252456,2983254,-5295039,3018401,-6591011,-7430388,-7853765,-7673233
2036287492,1978583,-211076,3011926,-5296053,3041976,-6592790,-7432241,-7865407,-7680787
2036287493,1978584,-200263,3012883,-5297161,3039091,-6594439,-7433757,-7873136,-7685847
2036287494,1978585,-187261,3024743,-5298913,3035143,-6597043,-7435547,-7879854,-7690804
2036287495,1978586,-167149,3049143,-5301954,3032469,-6601324,-7437916,-7886855,-7697212
2036287496,1978587,-146234,3077043,-5305454,3028204,-6606282,-7440643,-7894189,-7704434
2036287497,1978588,-131569,3098264,-5308185,3022183,-6610430,-7443123,-7901203,-7710991
2036287498,1978589,-125980,3108265,-5309787,3016948,-6612911,-7444831,-7907231,-7715828
2036287499,1978590,-127424,3109038,-5310542,3012132,-6614209,-7446014,-7912426,-7719261
2036287500,1978591,-132897,3104204,-5310435,3006438,-6614426,-7446509,-7916624,-7721400
2036287501,1978592,-153634,3083019,-5309755,2991716,-6613591,-7446292,-7917696,-7721117
2036287502,1978593,-211023,3033350,-5308527,2951808,-6611349,-7444409,-7907642,-7714100
2036287503,1978594,-243045,3009351,-5307060,2936795,-6608903,-7442205,-7895907,-7706553
2036287504,1978595,-256086,2994870,-5305496,2938635,-6606630,-7440598,-7888006,-7701118
2036287505,1978596,-273940,2973506,-5302514,2939660,-6602767,-7438298,-7880066,-7694324
