# SwiftEEG raw counts,rate=1000,gain=24,lsb_uv=0.022351742
ts_us,seq,ch1_C4,ch2_P4,ch3_F4,ch4_Oz,ch5_AFz,ch6_F3,ch7_C3,ch8_P3
2103110642,2045372,-4550375,3999868,-5091546,3664016,-6181945,-7443788,-6806412,-6975617
2103110643,2045373,-4550606,3999849,-5091786,3662024,-6182237,-7443665,-6802759,-6974499
2103110644,2045374,-4550003,3998698,-5091391,3659883,-6181621,-7443127,-6799154,-6972807
2103110645,2045375,-4548787,3996782,-5090526,3658278,-6180311,-7442222,-6795421,-6970567
2103110646,2045376,-4547424,3994690,-5089600,3657651,-6178853,-7441276,-6791771,-6968136
2103110647,2045377,-4545512,3991954,-5088256,3657285,-6176942,-7440104,-6787909,-6965157
2103110648,2045378,-4541719,3986923,-5085415,3654951,-6173514,-7438224,-6783099,-6960335
2103110649,2045379,-4536859,3980674,-5081986,3651632,-6169072,-7435869,-6777441,-6954095
2103110650,2045380,-4532572,3976206,-5079116,3661174,-6165052,-7433743,-6773664,-6949172
2103110651,2045381,-4530401,3977095,-5077667,3699521,-6163441,-7433719,-6780673,-6951543
2103110652,2045382,-4529639,3978244,-5077124,3720248,-6162982,-7434335,-6790329,-6955777
2103110653,2045383,-4529777,3978723,-5077176,3722333,-6162994,-7434920,-6796608,-6958433
2103110654,2045384,-4530427,3979799,-5077531,3723803,-6163366,-7435542,-6801868,-6960939
2103110655,2045385,-4531515,3981410,-5078189,3724940,-6164163,-7436344,-6806777,-6963625
2103110656,2045386,-4533156,3983603,-5079343,3725212,-6165509,-7437565,-6811771,-6966753
2103110657,2045387,-4535143,3986417,-5080728,3725596,-6167411,-7438864,-6816679,-6970137
2103110658,2045388,-4538945,3991619,-5083411,3726741,-6171090,-7440856,-6822289,-6975146
2103110659,2045389,-4543729,3996491,-5086701,3711752,-6175374,-7442659,-6824402,-6978972
2103110660,2045390,-4547837,3998155,-5089446,3675791,-6178553,-7443221,-6816552,-6977129
2103110661,2045391,-4550252,4000089,-5091139,3666878,-6180598,-7443487,-6809785,-6975619
2103110662,2045392,-4551354,4001202,-5092019,3665373,-6181730,-7443697,-6805669,-6974883
2103110663,2045393,-4551748,4001336,-5092416,3663282,-6182190,-7443732,-6802181,-6973937
2103110664,2045394,-4551121,4000173,-5091992,3661114,-6181553,-7443170,-6798548,-6972217
2103110665,2045395,-4549872,3998216,-5091092,3659431,-6180204,-7442221,-6794776,-6969951
2103110666,2045396,-4548450,3996063,-5090107,3658805,-6178683,-7441221,-6791067,-6967469
2103110667,2045397,-4546700,3993499,-5088936,3658469,-6176923,-7440201,-6787366,-6964661
2103110668,2045398,-4542969,3988538,-5086210,3656738,-6173551,-7438354,-6782609,-6959923
2103110669,2045399,-4538016,3982173,-5082656,3653484,-6169019,-7435902,-6776875,-6953594
2103110670,2045400,-4533930,3977829,-5079949,3662191,-6165202,-7433986,-6773184,-6948796
2103110671,2045401,-4531640,3978552,-5078396,3700172,-6163484,-7433854,-6779852,-6950927
2103110672,2045402,-4530872,3979770,-5077858,3721739,-6163029,-7434487,-6789619,-6955231
2103110673,2045403,-4530744,3979984,-5077644,3723983,-6162769,-7434820,-6795695,-6957654
2103110674,2045404,-4531166,3980834,-5077772,3725502,-6162926,-7435222,-6800755,-6959936
2103110675,2045405,-4532407,3982601,-5078591,3726615,-6163870,-7436174,-6805826,-6962777
2103110676,2045406,-4533954,3984701,-5079647,3726898,-6165122,-7437306,-6810739,-6965817
2103110677,2045407,-4536007,3987566,-5081096,3727273,-6167079,-7438682,-6815726,-6969256
2103110678,2045408,-4539743,3992697,-5083742,3728500,-6170709,-7440648,-6821326,-6974223
2103110679,2045409,-4544645,3997811,-5087161,3714739,-6175151,-7442626,-6823924,-6978381
2103110680,2045410,-4548713,3999423,-5089819,3678596,-6178280,-7443136,-6816227,-6976581
2103110681,2045411,-4551337,4001477,-5091724,3668657,-6180514,-7443556,-6809444,-6975132
2103110682,2045412,-4552380,4002532,-5092551,3667226,-6181574,-7443692,-6805192,-6974297
2103110683,2045413,-4552594,4002501,-5092763,3665186,-6181844,-7443530,-6801489,-6973158
2103110684,2045414,-4552108,4001483,-5092471,3663034,-6181348,-7443088,-6797964,-6971572
2103110685,2045415,-4550946,3999612,-5091660,3661368,-6180087,-7442233,-6794272,-6969389
2103110686,2045416,-4549522,3997459,-5090674,3660662,-6178567,-7441238,-6790565,-6966912
2103110687,2045417,-4547626,3994759,-5089333,3660298,-6176670,-7440052,-6786693,-6963949
2103110688,2045418,-4543879,3989798,-5086495,3657947,-6173270,-7438167,-6781901,-6959178
2103110689,2045419,-4538952,3983473,-5083016,3654539,-6168769,-7435742,-6776197,-6952892
2103110690,2045420,-4534664,3978897,-5080162,3663334,-6164752,-7433637,-6772300,-6947888
2103110691,2045421,-4532434,3979671,-5078686,3701217,-6163090,-7433574,-6779005,-6950066
2103110692,2045422,-4531480,3980705,-5077964,3722916,-6162456,-7434041,-6788612,-6954192
2103110693,2045423,-4531466,3981046,-5077882,3725160,-6162326,-7434517,-6794824,-6956730
2103110694,2045424,-4532184,3982175,-5078296,3726615,-6162767,-7435214,-6800186,-6959307
2103110695,2045425,-4533386,3983904,-5079076,3727775,-6163672,-7436133,-6805214,-6962100
2103110696,2045426,-4534894,3985960,-5080094,3728112,-6164879,-7437231,-6810086,-6965087
2103110697,2045427,-4536800,3988662,-5081409,3728483,-6166676,-7438463,-6814934,-6968401
2103110698,2045428,-4540610,3993861,-5084139,3729725,-6170387,-7440526,-6820637,-6973443
2103110699,2045429,-4545516,3999034,-5087554,3716537,-6174829,-7442521,-6823371,-6977677
2103110700,2045430,-4549590,4000672,-5090237,3680409,-6177980,-7443043,-6815782,-6975935
2103110701,2045431,-4552329,4002793,-5092227,3669910,-6180302,-7443536,-6808995,-6974539
2103110702,2045432,-4553469,4003963,-5093133,3668394,-6181457,-7443754,-6804800,-6973785
2103110703,2045433,-4553607,4003857,-5093266,3666379,-6181659,-7443507,-6800988,-6972554
2103110704,2045434,-4553188,4002909,-5093041,3664306,-6181235,-7443129,-6797520,-6971037
2103110705,2045435,-4551981,4001002,-5092180,3662654,-6179936,-7442222,-6793773,-6968806
2103110706,2045436,-4550499,3998797,-5091125,3661932,-6178352,-7441159,-6789999,-6966261
2103110707,2045437,-4548819,3996311,-5090006,3661581,-6176666,-7440181,-6786334,-6963514
2103110708,2045438,-4545162,3991451,-5087249,3659281,-6173353,-7438339,-6781597,-6958846
2103110709,2045439,-4540156,3985049,-5083642,3655749,-6168772,-7435828,-6775807,-6952482
2103110710,2045440,-4535786,3980322,-5080740,3663735,-6164667,-7433645,-6771671,-6947285
2103110711,2045441,-4533434,3980908,-5079168,3701119,-6162882,-7433467,-6777943,-6949168
2103110712,2045442,-4532512,3982071,-5078486,3723963,-6162299,-7434000,-6787732,-6953432
2103110713,2045443,-4532601,3982509,-5078505,3726343,-6162262,-7434579,-6794128,-6956120
2103110714,2045444,-4533187,3983515,-5078802,3727893,-6162584,-7435159,-6799403,-6958581
2103110715,2045445,-4534422,3985272,-5079609,3729028,-6163521,-7436112,-6804487,-6961418
2103110716,2045446,-4535761,3987166,-5080462,3729321,-6164566,-7437036,-6809211,-6964253
2103110717,2045447,-4537687,3989883,-5081804,3729715,-6166382,-7438311,-6814091,-6967579
2103110718,2045448,-4541341,3994911,-5084388,3731008,-6169932,-7440260,-6819675,-6972474
2103110719,2045449,-4546247,4000196,-5087816,3718953,-6174400,-7442292,-6822732,-6976879
2103188568,2045450,-4550303,4001832,-5090464,3682344,-6177537,-7442802,-6815356,-6975230
2103188569,2045451,-4552969,4003791,-5092375,3670979,-6179775,-7443170,-6808280,-6973632
2103188570,2045452,-4554187,4005038,-5093350,3669613,-6181003,-7443445,-6804089,-6972919
2103188571,2045453,-4554762,4005379,-5093911,3667583,-6181644,-7443621,-6800686,-6972115
2103188572,2045454,-4554159,4004260,-5093508,3665438,-6181039,-7443049,-6797014,-6970401
2103188573,2045455,-4552934,4002338,-5092626,3663723,-6179713,-7442112,-6793241,-6968144
2103188574,2045456,-4551601,4000262,-5091714,3663031,-6178264,-7441189,-6789602,-6965749
2103188575,2045457,-4549706,3997564,-5090369,3662738,-6176362,-7439978,-6785708,-6962785
2103188576,2045458,-4546107,3992773,-5087689,3660778,-6173101,-7438179,-6781016,-6958179
2103188577,2045459,-4541135,3986400,-5084112,3657203,-6168567,-7435712,-6775272,-6951868
2103188578,2045460,-4536809,3981668,-5081228,3664714,-6164501,-7433584,-6771104,-6946685
2103188579,2045461,-4534510,3982265,-5079721,3701775,-6162760,-7433450,-6777287,-6948530
2103188580,2045462,-4533612,3983505,-5079076,3725111,-6162207,-7434027,-6787167,-6952861
2103188581,2045463,-4533425,3983681,-5078827,3727654,-6161911,-7434349,-6793337,-6955285
2103188582,2045464,-4534060,3984719,-5079177,3729113,-6162278,-7434991,-6798675,-6957806
2103188583,2045465,-4535296,3986479,-5079997,3730271,-6163220,-7435956,-6803782,-6960648
2103188584,2045466,-4536834,3988566,-5081062,3730613,-6164469,-7437077,-6808713,-6963684
2103188585,2045467,-4538725,3991234,-5082362,3730988,-6166239,-7438326,-6813572,-6966974
2103188586,2045468,-4542298,3996160,-5084869,3732219,-6169705,-7440214,-6819089,-6971779
2103188587,2045469,-4547266,4001530,-5088354,3720333,-6174229,-7442312,-6822244,-6976270
2103188588,2045470,-4551366,4003220,-5091051,3683834,-6177417,-7442844,-6814934,-6974669
2103188589,2045471,-4554110,4005264,-5093027,3672369,-6179726,-7443269,-6807885,-6973119
2103188590,2045472,-4555332,4006522,-5093994,3671000,-6180944,-7443526,-6803672,-6972403
2103188591,2045473,-4555518,4006469,-5094161,3668944,-6181184,-7443309,-6799870,-6971214
2103188592,2045474,-4555041,4005481,-5093882,3666768,-6180724,-7442872,-6796324,-6969637
2103188593,2045475,-4554049,4003792,-5093229,3665032,-6179647,-7442170,-6792781,-6967617
2103188594,2045476,-4552642,4001658,-5092251,3664260,-6178131,-7441169,-6789066,-6965159
2103188595,2045477,-4550864,3999079,-5091013,3663967,-6176329,-7440062,-6785283,-6962311
2103188596,2045478,-4547366,3994392,-5088424,3662016,-6173159,-7438334,-6780671,-6957792
2103188597,2045479,-4542331,3987963,-5084758,3658418,-6168556,-7435807,-6774869,-6951434
2103188598,2045480,-4537988,3983129,-5081884,3665118,-6164467,-7433638,-6770537,-6946141
2103188599,2045481,-4535564,3983514,-5080259,3701494,-6162589,-7433368,-6776249,-6947668
2103188600,2045482,-4534674,3984863,-5079630,3726041,-6162073,-7433995,-6786279,-6952097
2103188601,2045483,-4534545,3985113,-5079444,3728786,-6161844,-7434387,-6792616,-6954643
2103188602,2045484,-4535145,3986114,-5079769,3730237,-6162171,-7435006,-6797951,-6957146
2103188603,2045485,-4536387,3987879,-5080592,3731456,-6163119,-7435979,-6803077,-6959995
2103188604,2045486,-4537825,3989856,-5081536,3731759,-6164251,-7437003,-6807915,-6962924
2103188605,2045487,-4539727,3992531,-5082862,3732077,-6166035,-7438283,-6812817,-6966250
2103188606,2045488,-4543241,3997408,-5085336,3733403,-6169469,-7440151,-6818329,-6971011
2103188607,2045489,-4548085,4002716,-5088712,3722189,-6173886,-7442166,-6821538,-6975477
2103188608,2045490,-4552461,4004690,-5091682,3685676,-6177341,-7442967,-6814627,-6974219
2103188609,2045491,-4555249,4006726,-5093676,3673634,-6179672,-7443379,-6807484,-6972626
2103188610,2045492,-4556486,4008004,-5094651,3672296,-6180924,-7443650,-6803243,-6971909
2103188611,2045493,-4556683,4007971,-5094819,3670243,-6181183,-7443437,-6799431,-6970716
2103188612,2045494,-4556127,4006899,-5094444,3668095,-6180626,-7442886,-6795780,-6969044
2103188613,2045495,-4555104,4005174,-5093758,3666339,-6179511,-7442147,-6792201,-6966997
2103188614,2045496,-4553790,4003133,-5092872,3665569,-6178086,-7441243,-6788579,-6964622
2103188615,2045497,-4552039,4000594,-5091664,3665309,-6176312,-7440150,-6784799,-6961799
2103188616,2045498,-4548612,3995987,-5089117,3663303,-6173201,-7438467,-6780246,-6957382
2103188617,2045499,-4543657,3989637,-5085502,3659682,-6168686,-7436011,-6774535,-6951102
2103188618,2045500,-4539286,3984694,-5082640,3665703,-6164559,-7433822,-6770023,-6945686
2103188619,2045501,-4536787,3984913,-5080955,3701302,-6162581,-7433456,-6775273,-6946913
2103188620,2045502,-4535790,3986274,-5080236,3727194,-6161981,-7434013,-6785338,-6951344
2103188621,2045503,-4535574,3986465,-5079976,3730153,-6161679,-7434347,-6791691,-6953871
2103188622,2045504,-4536231,3987522,-5080356,3731576,-6162071,-7435034,-6797129,-6956451
2103188623,2045505,-4537326,3989142,-5081036,3732784,-6162877,-7435871,-6802144,-6959172
2103188624,2045506,-4538787,3991142,-5082007,3733176,-6164037,-7436912,-6807020,-6962128
2103188625,2045507,-4540486,3993605,-5083137,3733532,-6165607,-7437999,-6811726,-6965252
2103188626,2045508,-4544057,3998522,-5085679,3734819,-6169081,-7439952,-6817324,-6970078
2103188627,2045509,-4549024,4004029,-5089171,3724489,-6173634,-7442102,-6820906,-6974799
2103248514,2045510,-4553330,4005959,-5092064,3688118,-6177031,-7442847,-6814172,-6973596
2103248515,2045511,-4556185,4007976,-5094113,3675011,-6179404,-7443289,-6806912,-6971954
2103248516,2045512,-4557410,4009244,-5095057,3673584,-6180631,-7443519,-6802595,-6971187
2103248517,2045513,-4557661,4009278,-5095275,3671573,-6180949,-7443351,-6798804,-6970047
2103248518,2045514,-4557108,4008220,-5094904,3669369,-6180396,-7442804,-6795141,-6968377
2103248519,2045515,-4556073,4006488,-5094213,3667577,-6179271,-7442051,-6791542,-6966313
2103248520,2045516,-4554706,4004393,-5093279,3666804,-6177804,-7441102,-6787872,-6963893
2103248521,2045517,-4552967,4001864,-5092066,3666508,-6176042,-7440000,-6784082,-6961069
2103248522,2045518,-4549592,3997326,-5089639,3665077,-6172984,-7438339,-6779559,-6956697
2103248523,2045519,-4544697,3991014,-5086087,3661729,-6168526,-7435951,-6773924,-6950496
2103248524,2045520,-4540182,3985916,-5083017,3667341,-6164268,-7433636,-6769281,-6944948
2103248525,2045521,-4537710,3986150,-5081370,3702869,-6162332,-7433331,-6774587,-6946218
2103248526,2045522,-4536781,3987564,-5080725,3728700,-6161806,-7433959,-6784733,-6950701
2103248527,2045523,-4536651,3987828,-5080547,3731662,-6161591,-7434378,-6791172,-6953309
2103248528,2045524,-4537175,3988748,-5080796,3733151,-6161841,-7434934,-6796472,-6955746
2103248529,2045525,-4538284,3990371,-5081489,3734418,-6162647,-7435772,-6801494,-6958472
2103248530,2045526,-4539782,3992412,-5082507,3734784,-6163841,-7436862,-6806408,-6961476
2103248531,2045527,-4541607,3994994,-5083766,3735080,-6165534,-7438089,-6811256,-6964728
2103248532,2045528,-4544989,3999717,-5086134,3736421,-6168839,-7439878,-6816691,-6969365
2103248533,2045529,-4549884,4005213,-5089561,3726741,-6173344,-7441982,-6820351,-6974102
2103248534,2045530,-4554173,4007146,-5092411,3690129,-6176717,-7442706,-6813744,-6972950
2103248535,2045531,-4557142,4009240,-5094564,3676397,-6179194,-7443237,-6806474,-6971351
2103248536,2045532,-4558309,4010455,-5095458,3675101,-6180358,-7443389,-6802042,-6970494
2103248537,2045533,-4558648,4010589,-5095770,3673144,-6180757,-7443298,-6798313,-6969419
2103248538,2045534,-4558192,4009637,-5095486,3670923,-6180307,-7442834,-6794732,-6967845
2103248539,2045535,-4557161,4007909,-5094787,3669106,-6179191,-7442084,-6791124,-6965776
2103248540,2045536,-4555801,4005808,-5093854,3668361,-6177718,-7441125,-6787448,-6963361
2103248541,2045537,-4554054,4003286,-5092634,3668124,-6175937,-7440010,-6783648,-6960544
2103248542,2045538,-4550565,3998648,-5090041,3666478,-6172755,-7438202,-6778982,-6956049
2103248543,2045539,-4545852,3992522,-5086658,3662845,-6168496,-7435997,-6773529,-6950041
2103248544,2045540,-4541429,3987445,-5083729,3667889,-6164329,-7433779,-6768838,-6944492
2103248545,2045541,-4538755,3987373,-5081890,3702576,-6162170,-7433246,-6773531,-6945328
2103248546,2045542,-4537726,3988798,-5081160,3729758,-6161547,-7433802,-6783703,-6949813
2103248547,2045543,-4537666,3989169,-5081069,3733060,-6161413,-7434328,-6790341,-6952561
2103248548,2045544,-4538289,3990178,-5081413,3734466,-6161767,-7434989,-6795778,-6955111
2103248549,2045545,-4539416,3991821,-5082129,3735701,-6162601,-7435857,-6800844,-6957872
2103248550,2045546,-4540727,3993687,-5082966,3736108,-6163625,-7436773,-6805592,-6960700
2103248551,2045547,-4542579,3996281,-5084254,3736342,-6165335,-7438034,-6810482,-6963976
2103248552,2045548,-4546017,4001048,-5086691,3737650,-6168691,-7439908,-6816009,-6968681
2103248553,2045549,-4550964,4006613,-5090167,3728263,-6173239,-7442076,-6819800,-6973506
2103248554,2045550,-4555234,4008560,-5093019,3691798,-6176609,-7442786,-6813249,-6972381
2103248555,2045551,-4558101,4010538,-5095034,3677912,-6178972,-7443171,-6805798,-6970626
2103248556,2045552,-4559388,4011880,-5096030,3676593,-6180242,-7443410,-6801447,-6969880
2103248557,2045553,-4559709,4011988,-5096324,3674528,-6180629,-7443309,-6797702,-6968804
2103248558,2045554,-4559105,4010893,-5095897,3672364,-6180033,-7442696,-6793965,-6967083
2103248559,2045555,-4558118,4009214,-5095244,3670605,-6178966,-7441985,-6790398,-6965066
2103248560,2045556,-4556801,4007159,-5094345,3669795,-6177541,-7441064,-6786761,-6962685
2103248561,2045557,-4555005,4004585,-5093062,3669459,-6175708,-7439885,-6782907,-6959815
2103248562,2045558,-4551631,4000059,-5090572,3667768,-6172621,-7438156,-6778333,-6955439
2103248563,2045559,-4546765,3993792,-5087044,3664118,-6168212,-7435796,-6772734,-6949305
2103248564,2045560,-4542300,3988669,-5084079,3669100,-6164010,-7433556,-6768028,-6943734
2103248565,2045561,-4539655,3988608,-5082284,3703751,-6161889,-7433072,-6772776,-6944598
2103248566,2045562,-4538592,3989998,-5081519,3730914,-6161244,-7433617,-6782932,-6949044
2103248567,2045563,-4538496,3990321,-5081392,3734159,-6161074,-7434114,-6789541,-6951749
2103248568,2045564,-4539176,3991388,-5081811,3735631,-6161486,-7434847,-6795049,-6954359
2103248569,2045565,-4540265,3993003,-5082496,3736908,-6162284,-7435686,-6800080,-6957084
2103248570,2045566,-4541566,3994854,-5083319,3737306,-6163288,-7436591,-6804815,-6959889
2103248571,2045567,-4543564,3997579,-5084762,3737523,-6165150,-7438009,-6809863,-6963317
2103248572,2045568,-4547032,4002358,-5087237,3738844,-6168541,-7439929,-6815429,-6968036
2103248573,2045569,-4551750,4007749,-5090491,3730006,-6172866,-7441884,-6819094,-6972677
2103248574,2045570,-4556151,4009849,-5093455,3693701,-6176365,-7442723,-6812819,-6971752
2103248575,2045571,-4559086,4011841,-5095528,3679256,-6178775,-7443133,-6805311,-6969996
2103248576,2045572,-4560458,4013279,-5096616,3677898,-6180142,-7443445,-6801012,-6969324
2103248577,2045573,-4560691,4013302,-5096806,3675874,-6180434,-7443234,-6797140,-6968135
2103248578,2045574,-4560314,4012439,-5096594,3673862,-6180069,-7442846,-6793617,-6966640
2103248579,2045575,-4559301,4010728,-5095901,3672351,-6178968,-7442097,-6790007,-6964601
2103248580,2045576,-4557895,4008587,-5094922,3671338,-6177457,-7441095,-6786287,-6962147
2103248581,2045577,-4556133,4006055,-5093681,3671119,-6175661,-7439939,-6782454,-6959303
2103248582,2045578,-4552853,4001638,-5091287,3669736,-6172659,-7438272,-6777949,-6955024
2103248583,2045579,-4548101,3995461,-5087878,3666225,-6168353,-7436022,-6772467,-6949009
2103248584,2045580,-4543586,3990233,-5084841,3670533,-6164109,-7433736,-6767617,-6943322
2103248585,2045581,-4540896,3990044,-5083011,3704434,-6161922,-7433191,-6772022,-6943968
2103320448,2045582,-4539921,3991586,-5082336,3732499,-6161376,-7433854,-6782352,-6948559
2103320449,2045583,-4539694,3991819,-5082087,3736084,-6161094,-7434241,-6788921,-6951192
2103320450,2045584,-4540310,3992829,-5082449,3737535,-6161452,-7434924,-6794402,-6953768
2103320451,2045585,-4541298,3994328,-5083025,3738829,-6162141,-7435659,-6799342,-6956392
2103320452,2045586,-4542725,3996298,-5083977,3739239,-6163266,-7436684,-6804212,-6959321
2103320453,2045587,-4544448,3998737,-5085151,3739507,-6164840,-7437837,-6808997,-6962471
2103320454,2045588,-4547846,4003433,-5087576,3740836,-6168169,-7439734,-6814537,-6967141
2103320455,2045589,-4552637,4008988,-5090909,3732863,-6172589,-7441799,-6818536,-6972007
2103320456,2045590,-4556991,4011094,-5093813,3696875,-6176049,-7442610,-6812526,-6971197
2103320457,2045591,-4560027,4013085,-5095959,3681248,-6178543,-7443077,-6804917,-6969424
2103320458,2045592,-4561396,4014507,-5097048,3679837,-6179898,-7443361,-6800522,-6968693
2103320459,2045593,-4561659,4014570,-5097272,3677861,-6180209,-7443160,-6796648,-6967503
2103320460,2045594,-4561285,4013728,-5097064,3675731,-6179853,-7442750,-6793085,-6965999
2103320461,2045595,-4560247,4012006,-5096350,3673808,-6178739,-7441984,-6789453,-6963939
2103320462,2045596,-4558819,4009844,-5095336,3672906,-6177199,-7440956,-6785700,-6961457
2103320463,2045597,-4557135,4007395,-5094156,3672626,-6175481,-7439873,-6781941,-6958709
2103320464,2045598,-4554016,4003147,-5091907,3670983,-6172646,-7438353,-6777589,-6954599
2103320465,2045599,-4549197,3996918,-5088407,3667189,-6168281,-7436028,-6772042,-6948512
2103320466,2045600,-4544649,3991598,-5085358,3671178,-6163986,-7433689,-6767058,-6942734
2103320467,2045601,-4541931,3991294,-5083528,3704279,-6161763,-7433116,-6771108,-6943169
2103320468,2045602,-4540846,3992825,-5082764,3733397,-6161120,-7433697,-6781396,-6947712
2103320469,2045603,-4540581,3993030,-5082466,3737252,-6160802,-7434064,-6788034,-6950365
2103320470,2045604,-4541206,3994039,-5082840,3738664,-6161171,-7434757,-6793567,-6952957
2103320471,2045605,-4542287,3995622,-5083520,3739904,-6161957,-7435581,-6798624,-6955679
2103320472,2045606,-4543739,3997618,-5084494,3740324,-6163109,-7436640,-6803534,-6958642
2103320473,2045607,-4545411,4000001,-5085621,3740594,-6164630,-7437754,-6808279,-6961749
2103320474,2045608,-4548695,4004578,-5087939,3741861,-6167842,-7439566,-6813736,-6966316
2103320475,2045609,-4553651,4010328,-5091441,3734224,-6172427,-7441816,-6817997,-6971384
2103320476,2045610,-4558032,4012474,-5094374,3698504,-6175924,-7442642,-6812115,-6970652
2103320477,2045611,-4561069,4014440,-5096518,3682487,-6178407,-7443080,-6804422,-6968825
2103320478,2045612,-4562408,4015845,-5097551,3681145,-6179730,-7443312,-6799954,-6968049
2103320479,2045613,-4562727,4015990,-5097832,3679131,-6180111,-7443164,-6796127,-6966938
2103320480,2045614,-4562391,4015189,-5097667,3676976,-6179793,-7442807,-6792602,-6965476
2103320481,2045615,-4561445,4013551,-5097042,3675063,-6178766,-7442129,-6789052,-6963508
2103320482,2045616,-4560160,4011526,-5096172,3674158,-6177364,-7441228,-6785431,-6961165
2103320483,2045617,-4558284,4008891,-5094807,3673919,-6175457,-7439942,-6781470,-6958224
2103320484,2045618,-4554999,4004481,-5092357,3672318,-6172431,-7438214,-6776924,-6953926
2103320485,2045619,-4550169,3998249,-5088840,3668474,-6168071,-7435882,-6771377,-6947854
2103320486,2045620,-4545627,3992917,-5085827,3672118,-6163791,-7433587,-6766376,-6942069
2103320487,2045621,-4542851,3992492,-5083941,3704773,-6161501,-7432959,-6770224,-6942352
2103320488,2045622,-4541831,3994122,-5083253,3734388,-6160934,-7433626,-6780633,-6946990
2103320489,2045623,-4541595,3994373,-5083009,3738409,-6160654,-7434034,-6787361,-6949702
2103320490,2045624,-4542141,3995295,-5083305,3739848,-6160937,-7434654,-6792820,-6952223
2103320491,2045625,-4543316,3996976,-5084082,3741159,-6161817,-7435588,-6797990,-6955032
2103320492,2045626,-4544754,3998959,-5085039,3741624,-6162959,-7436634,-6802892,-6957979
2103320493,2045627,-4546522,4001431,-5086252,3741822,-6164566,-7437841,-6807729,-6961179
2103320494,2045628,-4549656,4005844,-5088439,3743106,-6167639,-7439536,-6813064,-6965598
2103320495,2045629,-4554502,4011508,-5091839,3735923,-6172109,-7441693,-6817311,-6970606
2103320496,2045630,-4558944,4013754,-5094832,3700337,-6175675,-7442578,-6811646,-6970022
2103320497,2045631,-4561883,4015583,-5096861,3683671,-6178046,-7442879,-6803752,-6968039
2103320498,2045632,-4563269,4017040,-5097935,3682273,-6179412,-7443143,-6799276,-6967286
2103320499,2045633,-4563849,4017420,-5098469,3680208,-6180049,-7443249,-6795679,-6966414
2103320500,2045634,-4563425,4016518,-5098195,3678024,-6179643,-7442777,-6792053,-6964847
2103320501,2045635,-4562462,4014873,-5097544,3676094,-6178602,-7442084,-6788479,-6962868
2103320502,2045636,-4561124,4012806,-5096626,3675195,-6177148,-7441142,-6784808,-6960483
2103320503,2045637,-4559359,4010281,-5095357,3674956,-6175347,-7439954,-6780944,-6957641
2103320504,2045638,-4556109,4005928,-5092985,3673784,-6172356,-7438231,-6776408,-6953389
2103320505,2045639,-4551353,3999749,-5089546,3670448,-6168052,-7435956,-6770935,-6947390
2103320506,2045640,-4546761,3994316,-5086425,3673481,-6163719,-7433616,-6765849,-6941534
2103320507,2045641,-4544043,3993902,-5084612,3705646,-6161496,-7433046,-6769596,-6941782
2103320508,2045642,-4542914,3995462,-5083836,3735701,-6160831,-7433636,-6779932,-6946342
2103320509,2045643,-4542619,3995663,-5083531,3739862,-6160492,-7433993,-6786664,-6949027
2103320510,2045644,-4543069,3996484,-5083731,3741310,-6160683,-7434524,-6792051,-6951456
2103320511,2045645,-4544220,3998141,-5084486,3742526,-6161549,-7435437,-6797203,-6954246
2103320512,2045646,-4545655,4000117,-5085439,3743041,-6162690,-7436485,-6802109,-6957194
2103320513,2045647,-4547330,4002494,-5086576,3743324,-6164197,-7437616,-6806876,-6960309
2103320514,2045648,-4550552,4006981,-5088861,3744607,-6167361,-7439416,-6812319,-6964810
2103320515,2045649,-4555436,4012747,-5092303,3737993,-6171891,-7441638,-6816751,-6969937
2103320516,2045650,-4559918,4015089,-5095319,3702874,-6175507,-7442592,-6811340,-6969514
2103320517,2045651,-4563041,4017031,-5097521,3685470,-6178045,-7443041,-6803498,-6967624
2103320518,2045652,-4564359,4018418,-5098526,3683949,-6179327,-7443207,-6798894,-6966770
2103320519,2045653,-4564749,4018618,-5098867,3681958,-6179772,-7443112,-6795086,-6965704
2103320520,2045654,-4564524,4017939,-5098791,3679862,-6179571,-7442826,-6791621,-6964336
2103320521,2045655,-4563469,4016200,-5098054,3678035,-6178436,-7442022,-6787946,-6962258
2103320522,2045656,-4562210,4014217,-5097200,3677192,-6177071,-7441153,-6784355,-6959952
2103320523,2045657,-4560562,4011823,-5096052,3676916,-6175377,-7440086,-6780614,-6957228
2103320524,2045658,-4557312,4007471,-5093604,3675354,-6172374,-7438344,-6776049,-6952975
2103320525,2045659,-4552544,4001301,-5090141,3671436,-6168071,-7436055,-6770566,-6946981
2103398378,2045660,-4547818,3995700,-5086965,3674441,-6163604,-7433589,-6765291,-6940951
2103398379,2045661,-4544905,3995013,-5084986,3705885,-6161177,-7432831,-6768575,-6940852
2103398380,2045662,-4543799,3996668,-5084234,3736793,-6160545,-7433458,-6778996,-6945477
2103398381,2045663,-4543606,3996988,-5084028,3741223,-6160311,-7433933,-6785900,-6948297
2103398382,2045664,-4544054,3997812,-5084234,3742708,-6160507,-7434481,-6791324,-6950740
2103398383,2045665,-4545172,3999447,-5084962,3744057,-6161342,-7435376,-6796471,-6953521
2103398384,2045666,-4546614,4001422,-5085930,3744548,-6162474,-7436421,-6801392,-6956480
2103398385,2045667,-4548254,4003750,-5087026,3744773,-6163946,-7437514,-6806127,-6959556
2103398386,2045668,-4551429,4008168,-5089269,3745994,-6167066,-7439297,-6811546,-6964013
2103398387,2045669,-4556291,4013969,-5092701,3739876,-6171581,-7441521,-6816099,-6969204
2103398388,2045670,-4560760,4016343,-5095681,3704799,-6175186,-7442454,-6810891,-6968875
2103398389,2045671,-4563845,4018186,-5097838,3686587,-6177668,-7442826,-6802883,-6966855
2103398390,2045672,-4565413,4019818,-5099097,3685166,-6179213,-7443239,-6798465,-6966222
2103398391,2045673,-4565773,4020002,-5099391,3683228,-6179628,-7443104,-6794596,-6965117
2103398392,2045674,-4565325,4019114,-5099094,3681136,-6179210,-7442593,-6790904,-6963532
2103398393,2045675,-4564461,4017574,-5098554,3679171,-6178276,-7441985,-6787421,-6961654
2103398394,2045676,-4563237,4015614,-5097739,3678240,-6176936,-7441147,-6783859,-6959380
2103398395,2045677,-4561479,4013103,-5096472,3678009,-6175126,-7439947,-6779986,-6956529
2103398396,2045678,-4558259,4008793,-5094057,3676697,-6172139,-7438188,-6775427,-6952291
2103398397,2045679,-4553654,4002781,-5090743,3672913,-6168007,-7436065,-6770111,-6946482
2103398398,2045680,-4548996,3997201,-5087614,3675206,-6163614,-7433663,-6764820,-6940469
2103398399,2045681,-4546083,3996379,-5085631,3705586,-6161153,-7432873,-6767724,-6940152
2103398400,2045682,-4544924,3998074,-5084849,3737560,-6160491,-7433486,-6778144,-6944782
2103398401,2045683,-4544542,3998257,-5084466,3742490,-6160089,-7433811,-6785010,-6947510
2103398402,2045684,-4545069,3999151,-5084757,3743911,-6160369,-7434433,-6790551,-6950052
2103398403,2045685,-4546122,4000708,-5085422,3745213,-6161134,-7435257,-6795656,-6952765
2103398404,2045686,-4547611,4002738,-5086442,3745715,-6162320,-7436372,-6800648,-6955776
2103398405,2045687,-4549202,4005018,-5087497,3745926,-6163739,-7437437,-6805357,-6958816
2103398406,2045688,-4552391,4009426,-5089767,3747177,-6166872,-7439260,-6810814,-6963291
2103398407,2045689,-4557137,4015146,-5093089,3741551,-6171279,-7441387,-6815372,-6968416
2103398408,2045690,-4561738,4017704,-5096214,3706934,-6175037,-7442471,-6810512,-6968326
2103398409,2045691,-4564934,4019597,-5098443,3688049,-6177607,-7442908,-6802482,-6966341
2103398410,2045692,-4566299,4021036,-5099487,3686600,-6178928,-7443087,-6797801,-6965479
2103398411,2045693,-4566821,4021398,-5099959,3684664,-6179515,-7443116,-6794079,-6964527
2103398412,2045694,-4566476,4020608,-5099743,3682523,-6179194,-7442692,-6790471,-6963031
2103398413,2045695,-4565324,4018783,-5098904,3680515,-6177974,-7441787,-6786684,-6960863
2103398414,2045696,-4564140,4016872,-5098139,3679534,-6176680,-7440997,-6783152,-6958639
2103398415,2045697,-4562614,4014593,-5097102,3679276,-6175099,-7440024,-6779507,-6956033
2103398416,2045698,-4559528,4010431,-5094823,3677969,-6172233,-7438376,-6775069,-6951936
2103398417,2045699,-4554709,4004209,-5091264,3674174,-6167887,-7436022,-6769544,-6945909
2103398418,2045700,-4549987,3998546,-5088087,3676278,-6163435,-7433585,-6764171,-6939826
2103398419,2045701,-4547052,3997643,-5086109,3706223,-6160957,-7432784,-6766911,-6939399
2103398420,2045702,-4545871,3999336,-5085306,3738589,-6160267,-7433384,-6777316,-6944006
2103398421,2045703,-4545509,3999549,-5084946,3743722,-6159887,-7433734,-6784262,-6946782
2103398422,2045704,-4546136,4000540,-5085340,3745151,-6160266,-7434476,-6789929,-6949436
2103398423,2045705,-4547022,4001926,-5085840,3746442,-6160862,-7435137,-6794869,-6951985
2103398424,2045706,-4548449,4003897,-5086803,3747021,-6161991,-7436179,-6799801,-6954927
2103398425,2045707,-4550286,4006398,-5088099,3747179,-6163637,-7437477,-6804761,-6958206
2103398426,2045708,-4553336,4010669,-5090260,3748311,-6166641,-7439204,-6810122,-6962556
2103398427,2045709,-4558125,4016460,-5093624,3742937,-6171109,-7441404,-6814777,-6967748
2103398428,2045710,-4562744,4019058,-5096756,3708588,-6174871,-7442490,-6810004,-6967714
2103398429,2045711,-4565894,4020887,-5098926,3689425,-6177383,-7442844,-6801856,-6965640
2103398430,2045712,-4567543,4022609,-5100232,3687904,-6178991,-7443282,-6797408,-6965050
2103398431,2045713,-4567920,4022828,-5100547,3686003,-6179439,-7443157,-6793536,-6963968
2103398432,2045714,-4567424,4021900,-5100206,3683889,-6178972,-7442592,-6789782,-6962329
2103398433,2045715,-4566362,4020167,-5099453,3681894,-6177834,-7441768,-6786074,-6960237
2103398434,2045716,-4565087,4018149,-5098579,3680841,-6176447,-7440881,-6782451,-6957916
2103398435,2045717,-4563335,4015653,-5097323,3680579,-6174644,-7439681,-6778587,-6955094
2103398436,2045718,-4560287,4011536,-5095076,3679337,-6171811,-7438045,-6774157,-6951037
2103398437,2045719,-4555697,4005547,-5091739,3675498,-6167696,-7435909,-6768852,-6945257
2103458323,2045720,-4551161,4000026,-5088736,3677225,-6163421,-7433655,-6763635,-6939335
2103458324,2045721,-4548138,3998958,-5086682,3706393,-6160842,-7432751,-6766024,-6938659
2103458325,2045722,-4546992,4000740,-5085917,3739463,-6160199,-7433406,-6776491,-6943323
2103458326,2045723,-4546646,4000996,-5085581,3744879,-6159842,-7433791,-6783552,-6946172
2103458327,2045724,-4547014,4001728,-5085731,3746306,-6159978,-7434289,-6788997,-6948586
2103458328,2045725,-4548091,4003304,-5086415,3747660,-6160764,-7435151,-6794151,-6951339
2103458329,2045726,-4549406,4005151,-5087257,3748248,-6161771,-7436084,-6798984,-6954171
2103458330,2045727,-4551112,4007527,-5088434,3748406,-6163304,-7437276,-6803836,-6957321
2103458331,2045728,-4554164,4011791,-5090616,3749549,-6166312,-7439033,-6809231,-6961677
2103458332,2045729,-4558954,4017631,-5093989,3744835,-6170777,-7441259,-6814038,-6966956
2103458333,2045730,-4563494,4020226,-5097042,3711096,-6174484,-7442292,-6809507,-6967022
2103458334,2045731,-4566722,4022044,-5099277,3690863,-6177057,-7442687,-6801301,-6964931
2103458335,2045732,-4568272,4023671,-5100477,3689263,-6178547,-7443001,-6796659,-6964187
2103458336,2045733,-4568744,4023988,-5100876,3687383,-6179080,-7442946,-6792830,-6963169
2103458337,2045734,-4568590,4023392,-5100854,3685274,-6178957,-7442701,-6789386,-6961855
2103458338,2045735,-4567477,4021609,-5100051,3683296,-6177768,-7441826,-6785616,-6959713
2103458339,2045736,-4566212,4019631,-5099198,3682215,-6176402,-7440957,-6782007,-6957418
2103458340,2045737,-4564671,4017344,-5098154,3682005,-6174809,-7439957,-6778336,-6954796
2103458341,2045738,-4561684,4013293,-5095942,3680799,-6172026,-7438347,-6773938,-6950798
2103458342,2045739,-4556959,4007172,-5092442,3676904,-6167776,-7436073,-6768496,-6944882
2103458343,2045740,-4552217,4001422,-5089260,3678435,-6163306,-7433626,-6763056,-6938745
2103458344,2045741,-4548945,4000048,-5086986,3707205,-6160483,-7432494,-6765074,-6937747
2103458345,2045742,-4547771,4001839,-5086204,3740713,-6159815,-7433141,-6775547,-6942414
2103458346,2045743,-4547552,4002231,-5085999,3746314,-6159595,-7433665,-6782790,-6945410
2103458347,2045744,-4548153,4003180,-5086376,3747711,-6159956,-7434415,-6788484,-6948053
2103458348,2045745,-4549084,4004617,-5086929,3749104,-6160606,-7435135,-6793504,-6950667
2103458349,2045746,-4550369,4006437,-5087751,3749679,-6161587,-7436042,-6798298,-6953467
2103458350,2045747,-4552051,4008783,-5088903,3749807,-6163072,-7437213,-6803127,-6956596
2103458351,2045748,-4554952,4012879,-5090938,3750961,-6165926,-7438832,-6808386,-6960802
2103458352,2045749,-4559882,4018896,-5094460,3746651,-6170544,-7441217,-6813451,-6966279
2103458353,2045750,-4564443,4021569,-5097523,3713394,-6174273,-7442280,-6809165,-6966479
2103458354,2045751,-4567544,4023198,-5099611,3692426,-6176705,-7442510,-6800722,-6964190
2103458355,2045752,-4569275,4024994,-5100987,3690654,-6178376,-7442983,-6796190,-6963597
2103458356,2045753,-4569717,4025277,-5101358,3688675,-6178886,-7442887,-6792309,-6962541
2103458357,2045754,-4569539,4024660,-5101306,3686544,-6178736,-7442600,-6788809,-6961190
2103458358,2045755,-4568529,4022994,-5100597,3684529,-6177662,-7441832,-6785146,-6959155
2103458359,2045756,-4567086,4020826,-5099566,3683489,-6176115,-7440779,-6781349,-6956676
2103458360,2045757,-4565565,4018552,-5098531,3683154,-6174536,-7439790,-6777679,-6954071
2103458361,2045758,-4562649,4014579,-5096416,3682220,-6171817,-7438225,-6773344,-6950150
2103458362,2045759,-4557806,4008326,-5092860,3678955,-6167444,-7435821,-6767792,-6944135
2103458363,2045760,-4553111,4002604,-5089660,3679998,-6163032,-7433428,-6762412,-6938051
2103458364,2045761,-4550118,4001481,-5087644,3708381,-6160489,-7432587,-6764658,-6937290
2103458365,2045762,-4548847,4003187,-5086779,3741976,-6159731,-7433159,-6775026,-6941860
2103458366,2045763,-4548497,4003451,-5086456,3747754,-6159387,-7433562,-6782173,-6944754
2103458367,2045764,-4548992,4004292,-5086738,3749153,-6159651,-7434217,-6787770,-6947295
2103458368,2045765,-4550116,4005913,-5087469,3750528,-6160481,-7435130,-6792986,-6950077
2103458369,2045766,-4551481,4007819,-5088366,3751145,-6161543,-7436121,-6797866,-6952963
2103458370,2045767,-4553034,4010021,-5089388,3751374,-6162898,-7437162,-6802566,-6955955
2103458371,2045768,-4555949,4014126,-5091461,3752528,-6165772,-7438839,-6807867,-6960172
2103458372,2045769,-4560687,4019983,-5094801,3748579,-6170216,-7441052,-6812824,-6965503
2103458373,2045770,-4565270,4022721,-5097885,3715439,-6173979,-7442151,-6808751,-6965838
2103458374,2045771,-4568510,4024449,-5100096,3693789,-6176528,-7442492,-6800347,-6963617
2103458375,2045772,-4570046,4026056,-5101264,3692174,-6177996,-7442737,-6795551,-6962782
2103458376,2045773,-4570672,4026539,-5101817,3690263,-6178683,-7442822,-6791827,-6961911
2103458377,2045774,-4570494,4025953,-5101771,3688150,-6178539,-7442539,-6788325,-6960562
2103458378,2045775,-4569550,4024334,-5101121,3686136,-6177521,-7441812,-6784702,-6958582
2103458379,2045776,-4568268,4022314,-5100238,3685071,-6176127,-7440911,-6781055,-6956263
2103458380,2045777,-4566651,4019966,-5099117,3684788,-6174456,-7439831,-6777297,-6953572
2103458381,2045778,-4563836,4016111,-5097072,3683711,-6171829,-7438341,-6773037,-6949755
2103458382,2045779,-4559177,4010046,-5093651,3680088,-6167641,-7436108,-6767659,-6943922
2103458383,2045780,-4554315,4004118,-5090328,3680966,-6163057,-7433552,-6762041,-6937627
2103458384,2045781,-4551206,4002734,-5088219,3708134,-6160364,-7432571,-6763736,-6936488
2103458385,2045782,-4549913,4004496,-5087347,3742773,-6159597,-7433141,-6774074,-6941044
2103458386,2045783,-4549608,4004881,-5087076,3749163,-6159317,-7433624,-6781449,-6944091
2103458387,2045784,-4549940,4005563,-5087202,3750556,-6159417,-7434106,-6786929,-6946492
2103458388,2045785,-4550977,4007102,-5087866,3751987,-6160182,-7434946,-6792093,-6949226
2103458389,2045786,-4552476,4009126,-5088892,3752539,-6161371,-7436074,-6797137,-6952242
2103458390,2045787,-4554089,4011378,-5089976,3752714,-6162776,-7437187,-6801915,-6955296
2103458391,2045788,-4556865,4015324,-5091903,3753796,-6165505,-7438748,-6807095,-6959382
2103458392,2045789,-4561584,4021188,-5095222,3750220,-6169920,-7440952,-6812132,-6964741
2103458393,2045790,-4566217,4024058,-5098364,3717654,-6173754,-7442114,-6808346,-6965252
2103458394,2045791,-4569601,4025878,-5100709,3695211,-6176448,-7442563,-6799999,-6963127
2103458395,2045792,-4571217,4027549,-5101948,3693388,-6177997,-7442879,-6795216,-6962345
2103458396,2045793,-4571716,4027905,-5102374,3691461,-6178555,-7442833,-6791344,-6961322
2103458397,2045794,-4571442,4027220,-5102229,3689288,-6178320,-7442442,-6787716,-6959884
2103458398,2045795,-4570439,4025558,-5101526,3687259,-6177258,-7441662,-6784035,-6957857
2103458399,2045796,-4569339,4023719,-5100811,3686146,-6176037,-7440931,-6780569,-6955703
2103458400,2045797,-4567841,4021483,-5099779,3685829,-6174481,-7439946,-6776915,-6953123
2103458401,2045798,-4565015,4017626,-5097736,3684831,-6171842,-7438426,-6772616,-6949286
2103458402,2045799,-4560282,4011493,-5094220,3681208,-6167579,-7436111,-6767165,-6943393
2103458403,2045800,-4555644,4005751,-5091126,3681615,-6163216,-7433787,-6761714,-6937290
2103458404,2045801,-4552467,4004144,-5088983,3707349,-6160439,-7432704,-6762869,-6935816
2103458405,2045802,-4550966,4005789,-5087903,3743091,-6159477,-7433080,-6772963,-6940174
2103458406,2045803,-4550606,4006181,-5087581,3750241,-6159158,-7433538,-6780471,-6943275
2103458407,2045804,-4551054,4006964,-5087816,3751591,-6159371,-7434149,-6786127,-6945819
2103458408,2045805,-4552143,4008558,-5088535,3752976,-6160184,-7435056,-6791381,-6948622
2103458409,2045806,-4553374,4010326,-5089297,3753646,-6161111,-7435913,-6796181,-6951382
2103458410,2045807,-4555034,4012629,-5090429,3753813,-6162564,-7437075,-6801026,-6954511
2103458411,2045808,-4557976,4016713,-5092542,3754853,-6165459,-7438826,-6806411,-6958768
2103458412,2045809,-4562666,4022572,-5095857,3751495,-6169866,-7441048,-6811484,-6964118
2103548242,2045810,-4567363,4025509,-5099047,3719147,-6173746,-7442259,-6807811,-6964714
2103548243,2045811,-4570616,4027173,-5101237,3696559,-6176282,-7442535,-6799267,-6962414
2103548244,2045812,-4572385,4029026,-5102632,3694746,-6177991,-7442991,-6794614,-6961783
2103548245,2045813,-4572781,4029281,-5102944,3692815,-6178445,-7442831,-6790632,-6960659
2103548246,2045814,-4572449,4028557,-5102726,3690731,-6178151,-7442381,-6786947,-6959159
2103548247,2045815,-4571512,4026959,-5102084,3688721,-6177144,-7441651,-6783323,-6957200
2103548248,2045816,-4570315,4025026,-5101296,3687561,-6175844,-7440834,-6779774,-6954981
2103548249,2045817,-4568699,4022673,-5100153,3687281,-6174165,-7439734,-6775999,-6952290
2103548250,2045818,-4565881,4018843,-5098076,3686277,-6171525,-7438189,-6771699,-6948456
2103548251,2045819,-4561446,4013023,-5094833,3682594,-6167556,-7436154,-6766539,-6942871
2103548252,2045820,-4556680,4007137,-5091639,3682868,-6163071,-7433721,-6760966,-6936646
2103548253,2045821,-4553262,4005247,-5089270,3708407,-6160059,-7432419,-6761841,-6934900
2103548254,2045822,-4551879,4007019,-5088329,3744314,-6159213,-7432935,-6772084,-6939388
2103548255,2045823,-4551589,4007484,-5088082,3751551,-6158974,-7433464,-6779689,-6942574
2103548256,2045824,-4551896,4008128,-5088176,3752956,-6159048,-7433953,-6785218,-6944971
2103548257,2045825,-4552852,4009575,-5088752,3754322,-6159711,-7434722,-6790334,-6947622
2103548258,2045826,-4554311,4011570,-5089748,3754971,-6160862,-7435814,-6795357,-6950617
2103548259,2045827,-4555973,4013867,-5090894,3755088,-6162324,-7436987,-6800212,-6953751
2103548260,2045828,-4558864,4017890,-5092963,3756066,-6165181,-7438707,-6805557,-6957957
2103548261,2045829,-4563681,4023887,-5096407,3752882,-6169716,-7441072,-6810822,-6963464
2103548262,2045830,-4568194,4026704,-5099411,3721064,-6173420,-7442119,-6807171,-6963991
2103548263,2045831,-4571603,4028506,-5101761,3697913,-6176117,-7442529,-6798721,-6961804
2103548264,2045832,-4573309,4030279,-5103076,3696020,-6177744,-7442882,-6793917,-6961061
2103548265,2045833,-4573869,4030698,-5103539,3694070,-6178369,-7442875,-6790080,-6960103
2103548266,2045834,-4573538,4029976,-5103324,3691982,-6178083,-7442409,-6786378,-6958603
2103548267,2045835,-4572674,4028457,-5102750,3689936,-6177152,-7441757,-6782819,-6956704
2103548268,2045836,-4571341,4026382,-5101808,3688759,-6175700,-7440792,-6779125,-6954335
2103548269,2045837,-4569864,4024173,-5100804,3688468,-6174170,-7439837,-6775498,-6951793
2103548270,2045838,-4567124,4020421,-5098806,3687448,-6171591,-7438334,-6771244,-6948036
2103548271,2045839,-4562549,4014471,-5095407,3683748,-6167492,-7436157,-6765952,-6942330
2103548272,2045840,-4557864,4008648,-5092285,3683693,-6163099,-7433816,-6760443,-6936186
2103548273,2045841,-4554449,4006648,-5089943,3708211,-6160076,-7432497,-6761021,-6934259
2103548274,2045842,-4553071,4008457,-5089021,3744768,-6159247,-7433027,-6771209,-6938730
2103548275,2045843,-4552641,4008839,-5088641,3752629,-6158865,-7433453,-6778812,-6941862
2103548276,2045844,-4553046,4009581,-5088832,3754024,-6159040,-7434049,-6784484,-6944385
2103548277,2045845,-4554141,4011165,-5089561,3755375,-6159859,-7434966,-6789779,-6947189
2103548278,2045846,-4555347,4012914,-5090314,3756057,-6160763,-7435811,-6794569,-6949936
2103548279,2045847,-4557017,4015205,-5091461,3756208,-6162208,-7436994,-6799442,-6953076
2103548280,2045848,-4559821,4019135,-5093461,3757233,-6164983,-7438668,-6804732,-6957208
2103548281,2045849,-4564370,4024914,-5096656,3754606,-6169266,-7440799,-6809859,-6962511
2103548282,2045850,-4568911,4027858,-5099691,3723769,-6173033,-7441906,-6806607,-6963266
2103548283,2045851,-4572381,4029606,-5102064,3699459,-6175751,-7442331,-6798099,-6961042
2103548284,2045852,-4574065,4031333,-5103336,3697294,-6177341,-7442615,-6793144,-6960207
2103548285,2045853,-4574755,4031893,-5103921,3695421,-6178084,-7442724,-6789384,-6959360
2103548286,2045854,-4574559,4031308,-5103836,3693366,-6177934,-7442385,-6785794,-6957986
2103548287,2045855,-4573549,4029649,-5103123,3691357,-6176859,-7441585,-6782081,-6955944
2103548288,2045856,-4572256,4027627,-5102239,3690189,-6175456,-7440667,-6778414,-6953619
2103548289,2045857,-4570786,4025409,-5101229,3689863,-6173909,-7439691,-6774770,-6951063
2103548290,2045858,-4568136,4021763,-5099309,3688858,-6171414,-7438259,-6770592,-6947399
2103548291,2045859,-4563644,4015887,-5095961,3685106,-6167387,-7436131,-6765363,-6941767
2103548292,2045860,-4558832,4009916,-5092730,3684943,-6162877,-7433684,-6759731,-6935491
2103548293,2045861,-4555416,4007885,-5090407,3708979,-6159857,-7432391,-6760218,-6933517
2103548294,2045862,-4553987,4009661,-5089438,3745778,-6158988,-7432897,-6770354,-6937930
2103548295,2045863,-4553554,4010057,-5089059,3753865,-6158609,-7433336,-6778010,-6941087
2103548296,2045864,-4553811,4010649,-5089127,3755275,-6158644,-7433803,-6783549,-6943468
2103548297,2045865,-4554856,4012176,-5089804,3756649,-6159405,-7434671,-6788797,-6946219
2103548298,2045866,-4556272,4014119,-5090747,3757329,-6160514,-7435716,-6793791,-6949165
2103548299,2045867,-4557953,4016417,-5091911,3757475,-6161979,-7436909,-6798677,-6952319
2103548300,2045868,-4560516,4020097,-5093680,3758462,-6164502,-7438360,-6803745,-6956206
2103548301,2045869,-4565115,4025968,-5096918,3756326,-6168841,-7440557,-6809050,-6961632
2103548302,2045870,-4569806,4029164,-5100107,3726344,-6172779,-7441853,-6806335,-6962759
2103548303,2045871,-4573215,4030761,-5102418,3700966,-6175426,-7442184,-6797641,-6960384
2103548304,2045872,-4575102,4032669,-5103884,3698613,-6177205,-7442650,-6792782,-6959688
2103548305,2045873,-4575879,4033319,-5104559,3696643,-6178047,-7442834,-6789079,-6958919
2103548306,2045874,-4575453,4032521,-5104246,3694480,-6177665,-7442260,-6785224,-6957302
2103548307,2045875,-4574556,4030982,-5103644,3692398,-6176719,-7441570,-6781611,-6955369
2103548308,2045876,-4573234,4028924,-5102712,3691209,-6175291,-7440618,-6777907,-6953011
2103548309,2045877,-4571829,4026779,-5101773,3690858,-6173814,-7439709,-6774319,-6950527
2103548310,2045878,-4569171,4023133,-5099829,3689934,-6171299,-7438239,-6770104,-6946845
2103548311,2045879,-4564565,4017158,-5096352,3686174,-6167162,-7435982,-6764759,-6941111
2103548312,2045880,-4559842,4011256,-5093213,3685778,-6162741,-7433618,-6759188,-6934915
2103548313,2045881,-4556538,4009217,-5091014,3708903,-6159801,-7432407,-6759507,-6932877
2103620176,2045882,-4555120,4011043,-5090075,3746111,-6158946,-7432949,-6769588,-6937286
2103620177,2045883,-4554591,4011392,-5089613,3754778,-6158488,-7433311,-6777291,-6940419
2103620178,2045884,-4554913,4012051,-5089736,3756235,-6158597,-7433846,-6782940,-6942889
2103620179,2045885,-4555794,4013423,-5090256,3757644,-6159203,-7434562,-6788047,-6945504
2103620180,2045886,-4557266,4015424,-5091269,3758344,-6160371,-7435678,-6793117,-6948519
2103620181,2045887,-4558907,4017674,-5092396,3758493,-6161788,-7436837,-6797970,-6951620
2103620182,2045888,-4561479,4021343,-5094183,3759474,-6164321,-7438318,-6803084,-6955519
2103620183,2045889,-4566047,4027188,-5097404,3757469,-6168639,-7440522,-6808410,-6960923
2103620184,2045890,-4570686,4030371,-5100533,3727926,-6172524,-7441760,-6805740,-6962046
2103620185,2045891,-4574248,4032103,-5102974,3702251,-6175309,-7442215,-6797157,-6959807
2103620186,2045892,-4575999,4033886,-5104301,3699831,-6176956,-7442529,-6792108,-6958966
2103620187,2045893,-4576615,4034372,-5104805,3697960,-6177619,-7442532,-6788219,-6958007
2103620188,2045894,-4576512,4033911,-5104804,3695881,-6177563,-7442266,-6784674,-6956701
2103620189,2045895,-4575564,4032329,-5104137,3693818,-6176564,-7441511,-6780991,-6954720
2103620190,2045896,-4574239,4030272,-5103208,3692607,-6175130,-7440546,-6777286,-6952371
2103620191,2045897,-4572770,4028074,-5102212,3692249,-6173597,-7439584,-6773646,-6949839
2103620192,2045898,-4570239,4024554,-5100380,3691339,-6171192,-7438217,-6769538,-6946277
2103620193,2045899,-4565772,4018713,-5097022,3687589,-6167189,-7436098,-6764325,-6940692
2103620194,2045900,-4560972,4012728,-5093818,3687022,-6162696,-7433675,-6758676,-6934411
2103620195,2045901,-4557606,4010547,-5091582,3709292,-6159696,-7432406,-6758710,-6932171
2103620196,2045902,-4556230,4012422,-5090693,3746943,-6158887,-7432986,-6768773,-6936585
2103620197,2045903,-4555691,4012804,-5090223,3756144,-6158422,-7433363,-6776588,-6939785
2103620198,2045904,-4555798,4013251,-5090149,3757548,-6158318,-7433699,-6782065,-6942067
2103620199,2045905,-4556763,4014701,-5090754,3758938,-6159000,-7434507,-6787272,-6944759
2103620200,2045906,-4558127,4016596,-5091660,3759696,-6160062,-7435514,-6792239,-6947662
2103620201,2045907,-4559776,4018858,-5092791,3759803,-6161482,-7436688,-6797118,-6950779
2103620202,2045908,-4562304,4022473,-5094548,3760728,-6163982,-7438154,-6802208,-6954649
2103620203,2045909,-4566785,4028254,-5097686,3759092,-6168222,-7440285,-6807549,-6960022
2103620204,2045910,-4571684,4031784,-5101087,3730149,-6172379,-7441807,-6805462,-6961584
2103620205,2045911,-4575274,4033471,-5103548,3703323,-6175171,-7442249,-6796813,-6959292
2103620206,2045912,-4577156,4035366,-5104969,3700720,-6176938,-7442657,-6791776,-6958506
2103620207,2045913,-4577656,4035757,-5105356,3698868,-6177501,-7442549,-6787737,-6957439
2103620208,2045914,-4577442,4035174,-5105244,3696842,-6177341,-7442172,-6784068,-6956021
2103620209,2045915,-4576680,4033773,-5104755,3695066,-6176529,-7441612,-6780571,-6954227
2103620210,2045916,-4575376,4031732,-5103862,3693768,-6175116,-7440669,-6776882,-6951894
2103620211,2045917,-4573796,4029408,-5102739,3693373,-6173456,-7439566,-6773104,-6949231
2103620212,2045918,-4571252,4025883,-5100916,3692641,-6171046,-7438156,-6768965,-6945667
2103620213,2045919,-4566946,4020206,-5097766,3689583,-6167210,-7436183,-6763904,-6940250
2103620214,2045920,-4562191,4014236,-5094542,3688435,-6162772,-7433811,-6758290,-6934006
2103620215,2045921,-4558692,4011809,-5092170,3709746,-6159618,-7432392,-6757937,-6931489
2103620216,2045922,-4557049,4013458,-5091011,3747858,-6158540,-7432715,-6767650,-6935597
2103620217,2045923,-4556632,4014020,-5090672,3757657,-6158216,-7433256,-6775721,-6939016
2103620218,2045924,-4556926,4014653,-5090791,3759071,-6158301,-7433786,-6781426,-6941492
2103620219,2045925,-4557909,4016111,-5091417,3760489,-6159016,-7434613,-6786675,-6944214
2103620220,2045926,-4559237,4017968,-5092282,3761249,-6160039,-7435591,-6791625,-6947098
2103620221,2045927,-4560632,4019986,-5093172,3761427,-6161200,-7436518,-6796267,-6949967
2103620222,2045928,-4563143,4023562,-5094927,3762306,-6163679,-7437991,-6801370,-6953819
2103620223,2045929,-4567753,4029493,-5098202,3761019,-6168055,-7440279,-6806917,-6959348
2103620224,2045930,-4572497,4032976,-5101438,3733041,-6172087,-7441679,-6804997,-6960931
2103620225,2045931,-4576052,4034557,-5103837,3705399,-6174831,-7442061,-6796249,-6958551
2103620226,2045932,-4578011,4036508,-5105347,3702628,-6176644,-7442507,-6791161,-6957786
2103620227,2045933,-4578624,4037023,-5105853,3700810,-6177309,-7442504,-6787201,-6956816
2103620228,2045934,-4578495,4036534,-5105799,3698719,-6177232,-7442190,-6783586,-6955469
2103620229,2045935,-4577592,4034991,-5105169,3696647,-6176277,-7441462,-6779919,-6953524
2103620230,2045936,-4576511,4033171,-5104476,3695288,-6175084,-7440737,-6776441,-6951406
2103620231,2045937,-4575006,4030945,-5103432,3694911,-6173500,-7439714,-6772745,-6948831
2103620232,2045938,-4572491,4027466,-5101620,3694175,-6171102,-7438316,-6768611,-6945284
2103620233,2045939,-4567855,4021470,-5098122,3690768,-6166936,-7435991,-6763226,-6939541
2103620234,2045940,-4563069,4015468,-5094904,3689766,-6162475,-7433602,-6757591,-6933286
2103620235,2045941,-4559729,4013172,-5092706,3710766,-6159497,-7432384,-6757358,-6930909
2103620236,2045942,-4558106,4014829,-5091581,3748951,-6158439,-7432749,-6767053,-6935011
2103620237,2045943,-4557561,4015274,-5091114,3759032,-6157989,-7433151,-6775036,-6938306
2103620238,2045944,-4557905,4015949,-5091292,3760391,-6158131,-7433745,-6780813,-6940835
2103620239,2045945,-4558739,4017266,-5091771,3761765,-6158691,-7434436,-6785922,-6943411
2103620240,2045946,-4559912,4018973,-5092486,3762551,-6159561,-7435249,-6790724,-6946134
2103620241,2045947,-4561524,4021189,-5093586,3762729,-6160927,-7436396,-6795568,-6949215
2103620242,2045948,-4564209,4024913,-5095514,3763593,-6163564,-7438057,-6800842,-6953236
2103620243,2045949,-4568673,4030710,-5098662,3762399,-6167807,-7440219,-6806292,-6958635
2103620244,2045950,-4573506,4034308,-5101986,3734599,-6171928,-7441707,-6804529,-6960352
2103620245,2045951,-4577024,4035840,-5104331,3706727,-6174636,-7442021,-6795714,-6957916
2103620246,2045952,-4578998,4037808,-5105849,3703844,-6176474,-7442458,-6790609,-6957134
2103620247,2045953,-4579704,4038418,-5106439,3702043,-6177245,-7442532,-6786730,-6956258
2103620248,2045954,-4579531,4037886,-5106352,3699997,-6177121,-7442177,-6783061,-6954871
2103620249,2045955,-4578637,4036366,-5105733,3697950,-6176181,-7441466,-6779397,-6952940
2103620250,2045956,-4577357,4034351,-5104836,3696646,-6174787,-7440541,-6775723,-6950623
2103620251,2045957,-4575969,4032233,-5103913,3696202,-6173329,-7439644,-6772147,-6948167
2103620252,2045958,-4573510,4028824,-5102171,3695483,-6170988,-7438281,-6768051,-6944694
2103620253,2045959,-4569133,4023075,-5098967,3692828,-6167070,-7436191,-6762911,-6939222
2103698105,2045960,-4564366,4017051,-5095697,3691293,-6162624,-7433812,-6757277,-6932963
2103698106,2045961,-4560834,4014461,-5093299,3711296,-6159429,-7432373,-6756577,-6930229
2103698107,2045962,-4559247,4016186,-5092232,3749816,-6158423,-7432797,-6766239,-6934347
2103698108,2045963,-4558731,4016722,-5091801,3760518,-6158023,-7433260,-6774401,-6937759
2103698109,2045964,-4558822,4017132,-5091731,3761941,-6157914,-7433604,-6779964,-6940054
2103698110,2045965,-4559776,4018554,-5092317,3763381,-6158580,-7434414,-6785202,-6942749
2103698111,2045966,-4561030,4020346,-5093115,3764145,-6159531,-7435322,-6790101,-6945558
2103698112,2045967,-4562626,4022539,-5094207,3764232,-6160882,-7436458,-6794956,-6948630
2103698113,2045968,-4565309,4026263,-5096163,3765107,-6163530,-7438148,-6800272,-6952663
2103698114,2045969,-4569663,4031968,-5099201,3764158,-6167670,-7440241,-6805664,-6957982
2103698115,2045970,-4574264,4035403,-5102291,3736966,-6171564,-7441517,-6803882,-6959569
2103698116,2045971,-4577881,4037008,-5104717,3708299,-6174354,-7441902,-6795139,-6957208
2103698117,2045972,-4579926,4039031,-5106294,3705366,-6176242,-7442377,-6790009,-6956460
2103698118,2045973,-4580663,4039672,-5106917,3703528,-6177042,-7442464,-6786131,-6955598
2103698119,2045974,-4580531,4039199,-5106871,3701426,-6176963,-7442135,-6782487,-6954247
2103698120,2045975,-4579828,4037863,-5106426,3699312,-6176201,-7441602,-6779007,-6952493
2103698121,2045976,-4578666,4035973,-5105650,3698013,-6174931,-7440806,-6775442,-6950307
2103698122,2045977,-4577001,4033593,-5104452,3697654,-6173194,-7439613,-6771586,-6947577
2103698123,2045978,-4574587,4030233,-5102729,3697001,-6170899,-7438268,-6767524,-6944139
2103698124,2045979,-4570204,4024488,-5099478,3693912,-6166974,-7436174,-6762372,-6938674
2103698125,2045980,-4565380,4018380,-5096185,3692413,-6162457,-7433744,-6756664,-6932350
2103698126,2045981,-4561738,4015624,-5093702,3711975,-6159154,-7432203,-6755736,-6929424
2103698127,2045982,-4560083,4017301,-5092586,3750736,-6158096,-7432585,-6765314,-6933457
2103698128,2045983,-4559542,4017857,-5092151,3761806,-6157693,-7433054,-6773522,-6936897
2103698129,2045984,-4559826,4018463,-5092274,3763216,-6157779,-7433602,-6779301,-6939400
2103698130,2045985,-4560887,4019982,-5092971,3764563,-6158540,-7434513,-6784663,-6942198
2103698131,2045986,-4562073,4021694,-5093702,3765406,-6159429,-7435354,-6789505,-6944944
2103698132,2045987,-4563543,4023751,-5094661,3765509,-6160656,-7436367,-6794229,-6947884
2103698133,2045988,-4566009,4027248,-5096407,3766328,-6163081,-7437865,-6799331,-6951701
2103698134,2045989,-4570554,4033143,-5099639,3765611,-6167405,-7440159,-6804974,-6957232
2103698135,2045990,-4575178,4036689,-5102744,3739353,-6171342,-7441471,-6803505,-6959007
2103698136,2045991,-4578862,4038294,-5105229,3710238,-6174188,-7441892,-6794779,-6956682
2103698137,2045992,-4580953,4040355,-5106855,3706856,-6176127,-7442399,-6789588,-6955916
2103698138,2045993,-4581809,4041116,-5107585,3705074,-6177039,-7442591,-6785791,-6955152
2103698139,2045994,-4581588,4040542,-5107437,3702994,-6176869,-7442164,-6782037,-6953702
2103698140,2045995,-4580756,4039084,-5106876,3700906,-6175995,-7441510,-6778426,-6951824
2103698141,2045996,-4579524,4037126,-5106025,3699546,-6174654,-7440634,-6774793,-6949566
2103698142,2045997,-4578156,4035038,-5105121,3699203,-6173217,-7439746,-6771222,-6947128
2103698143,2045998,-4575781,4031725,-5103412,3698423,-6170936,-7438401,-6767164,-6943725
2103698144,2045999,-4571441,4026033,-5100132,3694879,-6167053,-7436320,-6762041,-6938301
2103698145,2046000,-4566459,4019783,-5096721,3693304,-6162399,-7433746,-6756174,-6931837
2103698146,2046001,-4562672,4016781,-5094133,3711998,-6158931,-7432051,-6754848,-6928615
2103698147,2046002,-4561069,4018500,-5093076,3751031,-6157911,-7432484,-6764341,-6932637
2103698148,2046003,-4560504,4019089,-5092619,3762828,-6157497,-7432945,-6772682,-6936139
2103698149,2046004,-4560748,4019657,-5092701,3764279,-6157544,-7433471,-6778463,-6938614
2103698150,2046005,-4561710,4021083,-5093309,3765694,-6158218,-7434304,-6783759,-6941332
2103698151,2046006,-4562971,4022869,-5094120,3766516,-6159186,-7435224,-6788683,-6944152
2103698152,2046007,-4564543,4025031,-5095191,3766671,-6160512,-7436339,-6793529,-6947204
2103698153,2046008,-4566961,4028466,-5096892,3767474,-6162881,-7437817,-6798617,-6950975
2103698154,2046009,-4571482,4034358,-5100116,3766934,-6167184,-7440112,-6804291,-6956504
2103698155,2046010,-4576104,4037972,-5103233,3741196,-6171142,-7441446,-6803029,-6958394
2103698156,2046011,-4579822,4039584,-5105751,3711340,-6174023,-7441886,-6794316,-6956071
2103698157,2046012,-4581988,4041698,-5107412,3707951,-6176008,-7442422,-6789100,-6955329
2103698158,2046013,-4582596,4042229,-5107886,3706204,-6176660,-7442355,-6785029,-6954310
2103698159,2046014,-4582461,4041754,-5107828,3704045,-6176576,-7442002,-6781341,-6952946
2103698160,2046015,-4581626,4040296,-5107257,3701875,-6175702,-7441331,-6777707,-6951072
2103698161,2046016,-4580414,4038353,-5106417,3700494,-6174386,-7440472,-6774077,-6948831
2103698162,2046017,-4579127,4036331,-5105578,3700093,-6173018,-7439650,-6770584,-6946477
2103698163,2046018,-4576689,4032971,-5103819,3699404,-6170681,-7438237,-6766457,-6943012
2103698164,2046019,-4572419,4027364,-5100643,3696300,-6166859,-7436209,-6761404,-6937667
2103698165,2046020,-4567482,4021138,-5097247,3694579,-6162256,-7433690,-6755592,-6931240
2103698166,2046021,-4563748,4018123,-5094714,3712658,-6158846,-7432052,-6754192,-6927987
2103698167,2046022,-4562009,4019713,-5093522,3751844,-6157690,-7432352,-6763471,-6931832
2103698168,2046023,-4561425,4020311,-5093043,3764051,-6157251,-7432823,-6771871,-6935362
2103698169,2046024,-4561647,4020851,-5093121,3765478,-6157283,-7433331,-6777662,-6937830
2103698170,2046025,-4562645,4022309,-5093771,3766888,-6158007,-7434197,-6783007,-6940595
2103698171,2046026,-4563964,4024156,-5094642,3767767,-6159018,-7435177,-6788003,-6943472
2103698172,2046027,-4565578,4026358,-5095755,3767901,-6160382,-7436352,-6792895,-6946582
2103698173,2046028,-4567848,4029625,-5097321,3768644,-6162616,-7437703,-6797853,-6950203
2103698174,2046029,-4572309,4035469,-5100499,3768238,-6166877,-7439971,-6803533,-6955696
2103698175,2046030,-4577074,4039271,-5103739,3743094,-6170969,-7441450,-6802597,-6957826
2103698176,2046031,-4580778,4040829,-5106237,3712689,-6173817,-7441852,-6793836,-6955464
2103770040,2046032,-4582784,4042786,-5107734,3709048,-6175661,-7442206,-6788378,-6954518
2103770041,2046033,-4583605,4043533,-5108411,3707286,-6176535,-7442336,-6784494,-6953705
2103770042,2046034,-4583518,4043106,-5108382,3705183,-6176497,-7442017,-6780834,-6952377
2103770043,2046035,-4582723,4041705,-5107850,3703046,-6175669,-7441380,-6777244,-6950541
2103770044,2046036,-4581371,4039624,-5106879,3701601,-6174220,-7440389,-6773484,-6948173
2103770045,2046037,-4579876,4037396,-5105828,3701209,-6172634,-7439347,-6769766,-6945602
2103770046,2046038,-4577656,4034261,-5104278,3700535,-6170497,-7438124,-6765828,-6942354
2103770047,2046039,-4573574,4028840,-5101235,3697317,-6166861,-7436262,-6760939,-6937197
2103770048,2046040,-4568633,4022600,-5097829,3695313,-6162267,-7433757,-6755134,-6930781
2103770049,2046041,-4564717,4019288,-5095171,3712300,-6158658,-7431937,-6753272,-6927182
2103770050,2046042,-4562944,4020853,-5093965,3751692,-6157461,-7432209,-6762346,-6930899
2103770051,2046043,-4562471,4021646,-5093621,3764796,-6157157,-7432806,-6771032,-6934654
2103770052,2046044,-4562727,4022216,-5093724,3766324,-6157227,-7433375,-6776924,-6937196
2103770053,2046045,-4563563,4023518,-5094217,3767808,-6157788,-7434095,-6782144,-6939812
2103770054,2046046,-4564822,4025311,-5095029,3768671,-6158748,-7435016,-6787099,-6942644
2103770055,2046047,-4566524,4027579,-5096221,3768803,-6160187,-7436266,-6792084,-6945828
2103770056,2046048,-4568872,4030919,-5097871,3769576,-6162492,-7437717,-6797144,-6949539
2103770057,2046049,-4573112,4036545,-5100840,3769425,-6166532,-7439791,-6802659,-6954832
2103770058,2046050,-4577969,4040529,-5104189,3744966,-6170745,-7441395,-6802054,-6957188
2103770059,2046051,-4581661,4042044,-5106654,3714070,-6173576,-7441759,-6793252,-6954785
2103770060,2046052,-4583821,4044123,-5108279,3710154,-6175539,-7442215,-6787837,-6953931
2103770061,2046053,-4584617,4044844,-5108919,3708413,-6176382,-7442310,-6783899,-6953069
2103770062,2046054,-4584568,4044466,-5108929,3706275,-6176387,-7442031,-6780259,-6951781
2103770063,2046055,-4583687,4042984,-5108307,3704138,-6175468,-7441302,-6776566,-6949856
2103770064,2046056,-4582492,4041064,-5107497,3702751,-6174169,-7440457,-6772964,-6947648
2103770065,2046057,-4580962,4038804,-5106419,3702322,-6172561,-7439387,-6769221,-6945051
2103770066,2046058,-4578691,4035619,-5104808,3701733,-6170365,-7438086,-6765209,-6941749
2103770067,2046059,-4574421,4030025,-5101588,3698582,-6166530,-7436024,-6760139,-6936414
2103770068,2046060,-4569582,4023879,-5098281,3696504,-6162045,-7433627,-6754436,-6930099
2103770069,2046061,-4565870,4020713,-5095815,3713065,-6158640,-7432015,-6752679,-6926646
2103770070,2046062,-4564134,4022304,-5094658,3752418,-6157498,-7432329,-6761712,-6930357
2103770071,2046063,-4563479,4022948,-5094132,3765987,-6157014,-7432775,-6770296,-6933976
2103770072,2046064,-4563535,4023328,-5094044,3767548,-6156884,-7433154,-6776010,-6936324
2103770073,2046065,-4564454,4024722,-5094626,3768967,-6157531,-7433970,-6781336,-6939036
2103770074,2046066,-4565711,4026513,-5095441,3769898,-6158497,-7434897,-6786299,-6941866
2103770075,2046067,-4567424,4028782,-5096647,3770006,-6159941,-7436151,-6791295,-6945057
2103770076,2046068,-4569822,4032146,-5098354,3770769,-6162284,-7437664,-6796426,-6948817
2103770077,2046069,-4574093,4037809,-5101375,3770650,-6166362,-7439799,-6802003,-6954142
2103770078,2046070,-4578790,4041684,-5104562,3746664,-6170424,-7441256,-6801388,-6956432
2103770079,2046071,-4582477,4043176,-5107007,3715538,-6173246,-7441582,-6792589,-6954016
2103770080,2046072,-4584685,4045288,-5108666,3711444,-6175255,-7442070,-6787132,-6953168
2103770081,2046073,-4585470,4046002,-5109297,3709682,-6176091,-7442147,-6783159,-6952297
2103770082,2046074,-4585508,4045723,-5109395,3707513,-6176187,-7441950,-6779599,-6951086
2103770083,2046075,-4584899,4044515,-5109035,3705383,-6175533,-7441472,-6776166,-6949424
2103770084,2046076,-4583556,4042442,-5108066,3703942,-6174091,-7440474,-6772404,-6947061
2103770085,2046077,-4582165,4040320,-5107131,3703507,-6172619,-7439548,-6768801,-6944613
2103770086,2046078,-4579856,4037114,-5105487,3703001,-6170389,-7438189,-6764743,-6941277
2103770087,2046079,-4575678,4031598,-5102389,3700571,-6166641,-7436188,-6759735,-6936039
2103770088,2046080,-4570827,4025409,-5099019,3698184,-6162144,-7433781,-6754027,-6929723
2103770089,2046081,-4566922,4021986,-5096366,3714010,-6158544,-7431979,-6751956,-6925992
2103770090,2046082,-4565259,4023646,-5095295,3753444,-6157467,-7432386,-6760963,-6929726
2103770091,2046083,-4564711,4024445,-5094892,3767559,-6157108,-7432972,-6769753,-6933507
2103770092,2046084,-4564858,4024908,-5094901,3769138,-6157083,-7433444,-6775601,-6935966
2103770093,2046085,-4565669,4026186,-5095371,3770586,-6157618,-7434154,-6780829,-6938574
2103770094,2046086,-4567003,4028040,-5096267,3771509,-6158651,-7435154,-6785871,-6941480
2103770095,2046087,-4568526,4030141,-5097277,3771691,-6159904,-7436224,-6790695,-6944482
2103770096,2046088,-4570771,4033348,-5098851,3772344,-6162098,-7437616,-6795683,-6948095
2103770097,2046089,-4575005,4038963,-5101836,3772449,-6166141,-7439727,-6801284,-6953404
2103770098,2046090,-4579959,4043168,-5105277,3749248,-6170471,-7441462,-6801177,-6956074
2103770099,2046091,-4583667,4044648,-5107735,3717528,-6173304,-7441799,-6792375,-6953667
2103770100,2046092,-4585804,4046674,-5109302,3713176,-6175226,-7442179,-6786740,-6952681
2103770101,2046093,-4586537,4047355,-5109881,3711494,-6176003,-7442189,-6782682,-6951741
2103770102,2046094,-4586511,4047016,-5109917,3709454,-6176035,-7441917,-6779031,-6950461
2103770103,2046095,-4585776,4045683,-5109435,3707299,-6175269,-7441326,-6775462,-6948690
2103770104,2046096,-4584551,4043740,-5108585,3705804,-6173938,-7440438,-6771817,-6946451
2103770105,2046097,-4583069,4041533,-5107554,3705386,-6172371,-7439402,-6768114,-6943898
2103835979,2046098,-4580899,4038459,-5106022,3704881,-6170266,-7438156,-6764171,-6940693
2103835980,2046099,-4576731,4032964,-5102960,3702481,-6166523,-7436152,-6759172,-6935479
2103835981,2046100,-4571876,4026768,-5099595,3700066,-6162026,-7433756,-6753470,-6929173
2103835982,2046101,-4567976,4023319,-5096928,3715631,-6158437,-7431974,-6751367,-6925411
2103835983,2046102,-4566201,4024854,-5095756,3755073,-6157262,-7432299,-6760239,-6929015
2103835984,2046103,-4565521,4025539,-5095226,3769339,-6156776,-7432762,-6768937,-6932700
2103835985,2046104,-4565754,4026080,-5095319,3770889,-6156830,-7433320,-6774880,-6935234
2103835986,2046105,-4566492,4027269,-5095721,3772381,-6157285,-7433957,-6780041,-6937752
2103835987,2046106,-4567552,4028863,-5096342,3773337,-6158053,-7434694,-6784815,-6940376
2103835988,2046107,-4569114,4030995,-5097401,3773444,-6159347,-7435815,-6789681,-6943421
2103835989,2046108,-4571571,4034389,-5099180,3774099,-6161743,-7437423,-6794898,-6947244
2103835990,2046109,-4575868,4040091,-5102236,3774338,-6165862,-7439630,-6800624,-6952654
2103835991,2046110,-4580543,4044133,-5105396,3752174,-6169927,-7441124,-6800581,-6955247
2103835992,2046111,-4584287,4045594,-5107861,3719443,-6172795,-7441469,-6791852,-6952862
2103835993,2046112,-4586556,4047703,-5109581,3714652,-6174833,-7441942,-6786182,-6951906
2103835994,2046113,-4587457,4048563,-5110329,3713006,-6175784,-7442111,-6782243,-6951124
2103835995,2046114,-4587509,4048302,-5110417,3710973,-6175882,-7441884,-6778631,-6949906
2103835996,2046115,-4586851,4047046,-5110006,3708741,-6175200,-7441361,-6775117,-6948192
2103835997,2046116,-4585554,4045032,-5109091,3707279,-6173809,-7440412,-6771394,-6945889
2103835998,2046117,-4584002,4042746,-5107994,3706793,-6172174,-7439314,-6767623,-6943282
2103835999,2046118,-4581929,4039773,-5106549,3706152,-6170156,-7438144,-6763758,-6940169
2103836000,2046119,-4577857,4034387,-5103532,3703381,-6166500,-7436204,-6758820,-6935039
2103836001,2046120,-4572892,4028082,-5100066,3700898,-6161900,-7433696,-6753012,-6928619
2103836002,2046121,-4569077,4024609,-5097518,3715404,-6158382,-7431991,-6750716,-6924783
2103836003,2046122,-4567204,4026034,-5096262,3754816,-6157112,-7432210,-6759242,-6928156
2103836004,2046123,-4566531,4026811,-5095731,3770203,-6156636,-7432706,-6768135,-6931963
2103836005,2046124,-4566550,4027146,-5095633,3771841,-6156484,-7433077,-6773931,-6934330
2103836006,2046125,-4567451,4028493,-5096195,3773246,-6157106,-7433886,-6779284,-6937024
2103836007,2046126,-4568617,4030186,-5096922,3774241,-6157983,-7434731,-6784190,-6939772
2103836008,2046127,-4570073,4032218,-5097885,3774383,-6159168,-7435749,-6788978,-6942724
2103836009,2046128,-4572561,4035643,-5099714,3774985,-6161598,-7437416,-6794263,-6946591
2103836010,2046129,-4576774,4041246,-5102696,3775257,-6165634,-7439562,-6799929,-6951906
2103836011,2046130,-4581658,4045516,-5106064,3753411,-6169907,-7441265,-6800145,-6954734
2103836012,2046131,-4585380,4046956,-5108506,3720617,-6172734,-7441566,-6791371,-6952316
2103836013,2046132,-4587626,4049056,-5110172,3715803,-6174743,-7441981,-6785629,-6951317
2103836014,2046133,-4588377,4049761,-5110756,3714210,-6175534,-7441975,-6781520,-6950376
2103836015,2046134,-4588327,4049406,-5110750,3712154,-6175548,-7441662,-6777813,-6949065
2103836016,2046135,-4587607,4048101,-5110276,3710013,-6174797,-7441067,-6774238,-6947301
2103836017,2046136,-4586619,4046403,-5109663,3708481,-6173718,-7440422,-6770828,-6945304
2103836018,2046137,-4585284,4044341,-5108776,3707974,-6172289,-7439536,-6767259,-6942909
2103836019,2046138,-4583111,4041290,-5107222,3707505,-6170166,-7438240,-6763276,-6939696
2103836020,2046139,-4578852,4035729,-5103992,3704795,-6166328,-7436084,-6758150,-6934389
2103836021,2046140,-4573927,4029453,-5100579,3702119,-6161776,-7433632,-6752401,-6928026
2103836022,2046141,-4569927,4025750,-5097879,3716199,-6158079,-7431770,-6749858,-6923966
2103836023,2046142,-4567991,4027100,-5096566,3755829,-6156737,-7431937,-6758276,-6927242
2103836024,2046143,-4567411,4028001,-5096136,3771569,-6156363,-7432552,-6767327,-6931171
2103836025,2046144,-4567604,4028514,-5096206,3773243,-6156396,-7433103,-6773320,-6933722
2103836026,2046145,-4568455,4029809,-5096725,3774676,-6156967,-7433860,-6778631,-6936379
2103836027,2046146,-4569653,4031540,-5097492,3775627,-6157868,-7434744,-6783577,-6939157
2103836028,2046147,-4571090,4033534,-5098435,3775816,-6159031,-7435742,-6788334,-6942081
2103836029,2046148,-4573310,4036677,-5099996,3776472,-6161191,-7437152,-6793361,-6945676
2103836030,2046149,-4577586,4042365,-5103062,3776989,-6165311,-7439402,-6799159,-6951088
2103836031,2046150,-4582459,4046761,-5106429,3756299,-6169600,-7441137,-6799747,-6954113
2103836032,2046151,-4586397,4048350,-5109055,3722721,-6172629,-7441638,-6791238,-6951909
2103836033,2046152,-4588657,4050396,-5110728,3717282,-6174631,-7442021,-6785317,-6950820
2103836034,2046153,-4589493,4051207,-5111398,3715646,-6175527,-7442099,-6781251,-6949954
2103836035,2046154,-4589532,4050951,-5111481,3713521,-6175620,-7441861,-6777599,-6948719
2103836036,2046155,-4588852,4049689,-5111044,3711369,-6174922,-7441302,-6774044,-6946980
2103836037,2046156,-4587597,4047709,-5110164,3709776,-6173573,-7440377,-6770343,-6944707
2103836038,2046157,-4586252,4045628,-5109255,3709198,-6172137,-7439474,-6766762,-6942291
2103836039,2046158,-4584224,4042734,-5107847,3708675,-6170162,-7438322,-6762912,-6939229
2103836040,2046159,-4580116,4037328,-5104745,3705888,-6166459,-7436297,-6757916,-6934086
2103836041,2046160,-4575075,4030924,-5101197,3703171,-6161779,-7433721,-6752041,-6927596
2103836042,2046161,-4571135,4027168,-5098573,3716161,-6158126,-7431889,-6749286,-6923431
2103836043,2046162,-4569303,4028587,-5097385,3755445,-6156885,-7432157,-6757514,-6926661
2103836044,2046163,-4568478,4029351,-5096725,3772359,-6156295,-7432561,-6766512,-6930475
2103836045,2046164,-4568475,4029667,-5096600,3774109,-6156126,-7432926,-6772387,-6932872
2103836046,2046165,-4569374,4031006,-5097190,3775556,-6156752,-7433752,-6777804,-6935593
2103836047,2046166,-4570677,4032836,-5098054,3776551,-6157761,-7434736,-6782873,-6938477
2103836048,2046167,-4572137,4034855,-5099010,3776749,-6158944,-7435763,-6787662,-6941432
2103836049,2046168,-4574306,4037933,-5100534,3777310,-6161045,-7437151,-6792664,-6944993
2103836050,2046169,-4578509,4043550,-5103543,3777905,-6165097,-7439359,-6798427,-6950343
2103907912,2046170,-4583325,4047923,-5106836,3757669,-6169334,-7441043,-6799073,-6953373
2103907913,2046171,-4587096,4049334,-5109291,3724007,-6172199,-7441342,-6790409,-6951004
2103907914,2046172,-4589541,4051569,-5111144,3718314,-6174372,-7441893,-6784616,-6950072
2103907915,2046173,-4590569,4052583,-5111999,3716732,-6175447,-7442149,-6780735,-6949394
2103907916,2046174,-4590607,4052329,-5112065,3714693,-6175544,-7441886,-6777060,-6948153
2103907917,2046175,-4590064,4051214,-5111749,3712531,-6174983,-7441457,-6773627,-6946556
2103907918,2046176,-4588677,4049106,-5110737,3710994,-6173494,-7440396,-6769781,-6944145
2103907919,2046177,-4587197,4046908,-5109712,3710501,-6171932,-7439367,-6766081,-6941619
2103907920,2046178,-4585069,4043914,-5108196,3710049,-6169847,-7438082,-6762118,-6938444
2103907921,2046179,-4581014,4038568,-5105131,3707221,-6166205,-7436096,-6757173,-6933361
2103907922,2046180,-4576147,4032344,-5101765,3704398,-6161722,-7433725,-6751492,-6927066
2103907923,2046181,-4572169,4028474,-5099113,3716783,-6158006,-7431852,-6748551,-6922774
2103907924,2046182,-4570085,4029621,-5097689,3756093,-6156510,-7431867,-6756386,-6925682
2103907925,2046183,-4569479,4030666,-5097261,3773676,-6156159,-7432517,-6765729,-6929781
2103907926,2046184,-4569541,4031049,-5097216,3775430,-6156064,-7432970,-6771726,-6932262
2103907927,2046185,-4570264,4032212,-5097615,3776886,-6156513,-7433628,-6776972,-6934817
2103907928,2046186,-4571505,4033989,-5098422,3777905,-6157466,-7434558,-6782001,-6937652
2103907929,2046187,-4572996,4036041,-5099417,3778060,-6158689,-7435629,-6786841,-6940640
2103907930,2046188,-4575111,4039043,-5100894,3778609,-6160731,-7436964,-6791794,-6944139
2103907931,2046189,-4579300,4044639,-5103893,3779253,-6164772,-7439174,-6797596,-6949489
2103907932,2046190,-4584282,4049266,-5107366,3759866,-6169183,-7441050,-6798661,-6952829
2103907933,2046191,-4588144,4050749,-5109916,3725702,-6172129,-7441437,-6790126,-6950563
2103907934,2046192,-4590439,4052785,-5111597,3719603,-6174148,-7441796,-6784039,-6949399
2103907935,2046193,-4591497,4053818,-5112460,3717979,-6175252,-7442060,-6780128,-6948719
2103907936,2046194,-4591609,4053651,-5112601,3715919,-6175433,-7441877,-6776514,-6947551
2103907937,2046195,-4590982,4052449,-5112203,3713780,-6174783,-7441352,-6772992,-6945862
2103907938,2046196,-4589742,4050499,-5111334,3712232,-6173443,-7440442,-6769302,-6943616
2103907939,2046197,-4588182,4048216,-5110224,3711687,-6171795,-7439322,-6765502,-6941004
2103907940,2046198,-4586122,4045299,-5108764,3711255,-6169765,-7438081,-6761576,-6937887
2103907941,2046199,-4582182,4040066,-5105891,3709153,-6166228,-7436179,-6756733,-6932929
2103907942,2046200,-4577301,4033794,-5102452,3706214,-6161734,-7433782,-6751041,-6926627
2103907943,2046201,-4573293,4029846,-5099756,3717936,-6157992,-7431902,-6747993,-6922254
2103907944,2046202,-4571233,4030989,-5098359,3757141,-6156512,-7431954,-6755742,-6925114
2103907945,2046203,-4570468,4031916,-5097774,3775183,-6156009,-7432465,-6765000,-6929101
2103907946,2046204,-4570518,4032296,-5097722,3776974,-6155911,-7432912,-6771021,-6931592
2103907947,2046205,-4571183,4033396,-5098066,3778453,-6156297,-7433516,-6776224,-6934089
2103907948,2046206,-4572297,4035029,-5098750,3779443,-6157122,-7434334,-6781124,-6936791
2103907949,2046207,-4573879,4037161,-5099837,3779589,-6158429,-7435487,-6786050,-6939866
2103907950,2046208,-4576180,4040343,-5101504,3780189,-6160659,-7437038,-6791221,-6943560
2103907951,2046209,-4580086,4045673,-5104235,3781004,-6164414,-7438996,-6796783,-6948641
2103907952,2046210,-4585012,4050349,-5107653,3762631,-6168796,-7440840,-6798100,-6952102
2103907953,2046211,-4588952,4051867,-5110245,3728008,-6171815,-7441284,-6789735,-6949951
2103907954,2046212,-4591387,4053993,-5112059,3721265,-6173946,-7441755,-6783631,-6948817
2103907955,2046213,-4592356,4054946,-5112847,3719748,-6174954,-7441916,-6779584,-6948024
2103907956,2046214,-4592567,4054880,-5113090,3717664,-6175239,-7441814,-6776037,-6946944
2103907957,2046215,-4591772,4053528,-5112517,3715511,-6174427,-7441111,-6772313,-6945081
2103907958,2046216,-4590544,4051579,-5111643,3713894,-6173092,-7440209,-6768619,-6942831
2103907959,2046217,-4589131,4049445,-5110681,3713341,-6171594,-7439245,-6764966,-6940363
2103907960,2046218,-4587097,4046564,-5109235,3712946,-6169590,-7438007,-6761060,-6937287
2103907961,2046219,-4583268,4041463,-5106379,3710151,-6166157,-7436190,-6756304,-6932429
2103907962,2046220,-4578472,4035296,-5103082,3707115,-6161756,-7433896,-6750706,-6926227
2103907963,2046221,-4574162,4030961,-5100133,3718304,-6157716,-7431706,-6747169,-6921431
2103907964,2046222,-4571976,4031961,-5098624,3757398,-6156114,-7431634,-6754606,-6924061
2103907965,2046223,-4571358,4033109,-5098193,3776281,-6155764,-7432319,-6764142,-6928293
2103907966,2046224,-4571272,4033352,-5098012,3778161,-6155534,-7432648,-6770082,-6930671
2103907967,2046225,-4572163,4034676,-5098594,3779608,-6156162,-7433483,-6775532,-6933404
2103907968,2046226,-4573600,4036633,-5099590,3780651,-6157297,-7434613,-6780767,-6936430
2103907969,2046227,-4575124,4038699,-5100614,3780867,-6158532,-7435705,-6785651,-6939450
2103907970,2046228,-4577180,4041622,-5102052,3781364,-6160522,-7437034,-6790593,-6942909
2103907971,2046229,-4581185,4047026,-5104887,3782159,-6164384,-7439112,-6796273,-6948086
2103907972,2046230,-4586077,4051688,-5108272,3763981,-6168731,-7440929,-6797589,-6951517
2103907973,2046231,-4589930,4053150,-5110780,3729388,-6171674,-7441287,-6789124,-6949276
2103907974,2046232,-4592406,4055316,-5112606,3722606,-6173838,-7441752,-6783010,-6948166
2103907975,2046233,-4593358,4056269,-5113381,3721094,-6174834,-7441881,-6778943,-6947372
2103907976,2046234,-4593336,4055971,-5113386,3719024,-6174875,-7441541,-6775154,-6946052
2103907977,2046235,-4592688,4054757,-5112965,3716822,-6174208,-7440992,-6771587,-6944341
2103907978,2046236,-4591604,4052949,-5112241,3715113,-6173026,-7440236,-6768040,-6942246
2103907979,2046237,-4590229,4050846,-5111311,3714489,-6171564,-7439296,-6764425,-6939823
2103907980,2046238,-4588052,4047831,-5109714,3714090,-6169418,-7437919,-6760369,-6936605
2103907981,2046239,-4584092,4042609,-5106716,3711265,-6165837,-7435942,-6755477,-6931619
2103907982,2046240,-4579262,4036407,-5103375,3708174,-6161412,-7433609,-6749854,-6925401
2103907983,2046241,-4575236,4032318,-5100715,3718985,-6157651,-7431714,-6746551,-6920867
2103979848,2046242,-4573183,4033398,-5099341,3757818,-6156169,-7431770,-6753992,-6923545
2103979849,2046243,-4572436,4034446,-5098792,3777159,-6155695,-7432344,-6763467,-6927671
2103979850,2046244,-4572286,4034628,-5098554,3779096,-6155406,-7432625,-6769390,-6930006
2103979851,2046245,-4573080,4035859,-5099037,3780577,-6155938,-7433375,-6774773,-6932656
2103979852,2046246,-4574224,4037525,-5099746,3781586,-6156780,-7434216,-6779713,-6935395
2103979853,2046247,-4575660,4039514,-5100689,3781808,-6157930,-7435231,-6784511,-6938331
2103979854,2046248,-4577913,4042616,-5102316,3782283,-6160104,-7436760,-6789652,-6941979
2103979855,2046249,-4581945,4048051,-5105206,3783191,-6164001,-7438896,-6795408,-6947196
2103979856,2046250,-4586744,4052718,-5108509,3765974,-6168276,-7440660,-6796921,-6950706
2103979857,2046251,-4590837,4054384,-5111245,3730991,-6171445,-7441240,-6788792,-6948727
2103979858,2046252,-4593305,4056494,-5113052,3723561,-6173586,-7441665,-6782507,-6947516
2103979859,2046253,-4594317,4057509,-5113869,3722086,-6174631,-7441843,-6778444,-6946762
2103979860,2046254,-4594481,4057403,-5114048,3720041,-6174861,-7441674,-6774818,-6945629
2103979861,2046255,-4593876,4056243,-5113671,3717888,-6174250,-7441146,-6771271,-6943944
2103979862,2046256,-4592715,4054369,-5112864,3716250,-6172992,-7440306,-6767631,-6941766
2103979863,2046257,-4591338,4052270,-5111929,3715698,-6171532,-7439369,-6764017,-6939351
2103979864,2046258,-4589375,4049468,-5110544,3715229,-6169582,-7438189,-6760161,-6936340
2103979865,2046259,-4585309,4044148,-5107400,3712456,-6165900,-7436082,-6755134,-6931252
2103979866,2046260,-4580407,4037875,-5103987,3709329,-6161411,-7433681,-6749451,-6924967
2103979867,2046261,-4576401,4033725,-5101382,3719265,-6157674,-7431813,-6745991,-6920347
2103979868,2046262,-4574238,4034649,-5099915,3757725,-6156074,-7431757,-6753031,-6922759
2103979869,2046263,-4573394,4035703,-5099282,3778214,-6155521,-7432274,-6762569,-6926897
2103979870,2046264,-4573446,4036095,-5099241,3780205,-6155449,-7432759,-6768761,-6929469
2103979871,2046265,-4574209,4037286,-5099698,3781665,-6155942,-7433481,-6774132,-6932102
2103979872,2046266,-4575369,4038976,-5100440,3782740,-6156805,-7434354,-6779136,-6934864
2103979873,2046267,-4576847,4041003,-5101422,3782981,-6157998,-7435406,-6783992,-6937843
2103979874,2046268,-4578887,4043871,-5102848,3783408,-6159952,-7436733,-6788947,-6941292
2103979875,2046269,-4582847,4049234,-5105669,3784400,-6163782,-7438833,-6794668,-6946451
2103979876,2046270,-4587711,4054019,-5109030,3767742,-6168128,-7440672,-6796390,-6950096
2103979877,2046271,-4591818,4055704,-5111787,3732236,-6171311,-7441247,-6788344,-6948170
2103979878,2046272,-4594479,4057979,-5113771,3724534,-6173641,-7441831,-6782151,-6947099
2103979879,2046273,-4595316,4058823,-5114397,3723078,-6174511,-7441819,-6777874,-6946139
2103979880,2046274,-4595454,4058701,-5114553,3720992,-6174714,-7441623,-6774212,-6944971
2103979881,2046275,-4594906,4057605,-5114207,3719124,-6174160,-7441155,-6770715,-6943353
2103979882,2046276,-4593704,4055680,-5113363,3717598,-6172867,-7440266,-6767036,-6941148
2103979883,2046277,-4592157,4053398,-5112257,3716912,-6171209,-7439147,-6763236,-6938542
2103979884,2046278,-4590304,4050715,-5110973,3716581,-6169374,-7438046,-6759463,-6935628
2103979885,2046279,-4586463,4045632,-5108132,3714455,-6165915,-7436152,-6754652,-6930785
2103979886,2046280,-4581569,4039327,-5104684,3711155,-6161427,-7433755,-6748972,-6924515
2103979887,2046281,-4577439,4035004,-5101925,3720594,-6157566,-7431774,-6745335,-6919736
2103979888,2046282,-4575090,4035734,-5100295,3758918,-6155780,-7431556,-6752116,-6921915
2103979889,2046283,-4574220,4036784,-5099638,3779746,-6155222,-7432062,-6761690,-6926064
2103979890,2046284,-4574293,4037201,-5099624,3781828,-6155159,-7432587,-6767937,-6928671
2103979891,2046285,-4575014,4038339,-5100042,3783329,-6155616,-7433274,-6773291,-6931257
2103979892,2046286,-4576287,4040136,-5100887,3784411,-6156595,-7434257,-6778404,-6934136
2103979893,2046287,-4577697,4042092,-5101801,3784698,-6157711,-7435246,-6783188,-6937044
2103979894,2046288,-4579630,4044864,-5103134,3785116,-6159564,-7436487,-6788055,-6940392
2103979895,2046289,-4583475,4050106,-5105858,3786193,-6163288,-7438501,-6793711,-6945454
2103979896,2046290,-4588647,4055322,-5109528,3770736,-6167964,-7440684,-6796121,-6949619
2103979897,2046291,-4592691,4056913,-5112186,3734773,-6171072,-7441192,-6788125,-6947667
2103979898,2046292,-4595294,4059056,-5114108,3726216,-6173324,-7441676,-6781672,-6946403
2103979899,2046293,-4596327,4060092,-5114930,3724754,-6174379,-7441829,-6777526,-6945610
2103979900,2046294,-4596355,4059861,-5114963,3722687,-6174467,-7441508,-6773711,-6944315
2103979901,2046295,-4595659,4058628,-5114492,3720496,-6173782,-7440889,-6770050,-6942558
2103979902,2046296,-4594665,4056924,-5113844,3718824,-6172691,-7440203,-6766556,-6940546
2103979903,2046297,-4593284,4054816,-5112899,3718227,-6171216,-7439257,-6762912,-6938106
2103979904,2046298,-4591489,4052189,-5111681,3717825,-6169427,-7438192,-6759185,-6935252
2103979905,2046299,-4587835,4047292,-5108967,3715450,-6166139,-7436445,-6754534,-6930587
2103979906,2046300,-4582893,4040965,-5105459,3712133,-6161622,-7434025,-6748817,-6924273
2103979907,2046301,-4578443,4036226,-5102424,3720747,-6157412,-7431704,-6744642,-6919036
2103979908,2046302,-4576062,4036856,-5100774,3758702,-6155584,-7431432,-6751072,-6921012
2103979909,2046303,-4575477,4038304,-5100414,3780768,-6155329,-7432257,-6761108,-6925567
2103979910,2046304,-4575377,4038558,-5100239,3782955,-6155117,-7432626,-6767268,-6928048
2103979911,2046305,-4576056,4039656,-5100611,3784404,-6155525,-7433282,-6772616,-6930602
2103979912,2046306,-4577237,4041356,-5101374,3785463,-6156410,-7434174,-6777646,-6933399
2103979913,2046307,-4578781,4043449,-5102426,3785716,-6157664,-7435301,-6782584,-6936456
2103979914,2046308,-4580820,4046316,-5103864,3786122,-6159612,-7436661,-6787573,-6939910
2103979915,2046309,-4584466,4051364,-5106404,3787255,-6163155,-7438510,-6793066,-6944781
2103979916,2046310,-4589415,4056396,-5109862,3772281,-6167614,-7440495,-6795369,-6948788
2103979917,2046311,-4593611,4058139,-5112674,3736320,-6170874,-7441141,-6787596,-6947025
2103979918,2046312,-4596121,4060161,-5114470,3727451,-6173021,-7441489,-6780947,-6945620
2103979919,2046313,-4597249,4061309,-5115377,3725958,-6174176,-7441734,-6776875,-6944912
2103979920,2046314,-4597467,4061271,-5115606,3723886,-6174453,-7441603,-6773237,-6943804
2103979921,2046315,-4596920,4060191,-5115270,3721733,-6173909,-7441121,-6769711,-6942181
2103979922,2046316,-4595831,4058386,-5114534,3720017,-6172736,-7440342,-6766134,-6940080
2103979923,2046317,-4594431,4056254,-5113565,3719354,-6171232,-7439367,-6762472,-6937634
2103979924,2046318,-4592519,4053520,-5112227,3718983,-6169326,-7438176,-6758619,-6934663
2103979925,2046319,-4588877,4048637,-5109582,3717163,-6166028,-7436409,-6753962,-6930006
2104057778,2046320,-4583967,4042323,-5106071,3713860,-6161544,-7434021,-6748284,-6923741
2104057779,2046321,-4579594,4037618,-5103088,3721860,-6157421,-7431791,-6744116,-6918541
2104057780,2046322,-4577232,4038206,-5101466,3759341,-6155609,-7431536,-6750375,-6920420
2104057781,2046323,-4576368,4039439,-5100839,3782106,-6155086,-7432095,-6760197,-6924744
2104057782,2046324,-4576530,4039963,-5100921,3784416,-6155129,-7432744,-6766677,-6927522
2104057783,2046325,-4577310,4041149,-5101401,3785834,-6155642,-7433506,-6772152,-6930191
2104057784,2046326,-4578446,4042803,-5102106,3786938,-6156490,-7434362,-6777162,-6932946
2104057785,2046327,-4579849,4044751,-5103024,3787231,-6157598,-7435344,-6781969,-6935860
2104057786,2046328,-4581808,4047520,-5104388,3787602,-6159464,-7436635,-6786896,-6939241
2104057787,2046329,-4585609,4052704,-5107092,3788702,-6163142,-7438667,-6792557,-6944261
2104057788,2046330,-4590526,4057737,-5110529,3773963,-6167580,-7440621,-6794874,-6948254
2104057789,2046331,-4594549,4059318,-5113159,3738072,-6170671,-7441077,-6786979,-6946347
2104057790,2046332,-4597200,4061480,-5115086,3728959,-6172946,-7441544,-6780412,-6945051
2104057791,2046333,-4598237,4062544,-5115905,3727575,-6174011,-7441686,-6776233,-6944254
2104057792,2046334,-4598492,4062556,-5116159,3725531,-6174339,-7441586,-6772617,-6943184
2104057793,2046335,-4597874,4061392,-5115741,3723282,-6173715,-7441017,-6769003,-6941483
2104057794,2046336,-4596849,4059652,-5115074,3721500,-6172611,-7440309,-6765489,-6939457
2104057795,2046337,-4595574,4057656,-5114234,3720877,-6171240,-7439463,-6761957,-6937136
2104057796,2046338,-4593609,4054871,-5112822,3720466,-6169259,-7438203,-6758032,-6934104
2104057797,2046339,-4589886,4049939,-5110007,3718068,-6165894,-7436335,-6753284,-6929378
2104057798,2046340,-4584887,4043549,-5106435,3714640,-6161322,-7433849,-6747527,-6923027
2104057799,2046341,-4580673,4038942,-5103663,3722403,-6157355,-7431787,-6743451,-6917944
2104057800,2046342,-4578309,4039498,-5102067,3759558,-6155547,-7431553,-6749544,-6919734
2104057801,2046343,-4577516,4040848,-5101511,3782888,-6155092,-7432204,-6759529,-6924179
2104057802,2046344,-4577320,4041023,-5101249,3785354,-6154791,-7432515,-6765702,-6926624
2104057803,2046345,-4577937,4042055,-5101574,3786844,-6155143,-7433122,-6771034,-6929143
2104057804,2046346,-4579253,4043898,-5102462,3787948,-6156176,-7434159,-6776234,-6932075
2104057805,2046347,-4580697,4045891,-5103423,3788214,-6157336,-7435191,-6781089,-6935031
2104057806,2046348,-4582706,4048689,-5104834,3788569,-6159237,-7436547,-6786071,-6938459
2104057807,2046349,-4586427,4053784,-5107477,3789700,-6162847,-7438520,-6791697,-6943417
2104057808,2046350,-4591333,4058879,-5110895,3775809,-6167275,-7440476,-6794227,-6947529
2104057809,2046351,-4595489,4060591,-5113659,3739757,-6170509,-7441072,-6786566,-6945794
2104057810,2046352,-4598092,4062654,-5115512,3730148,-6172719,-7441451,-6779802,-6944362
2104057811,2046353,-4599202,4063796,-5116396,3728678,-6173852,-7441640,-6775654,-6943616
2104057812,2046354,-4599480,4063833,-5116677,3726595,-6174196,-7441554,-6772051,-6942563
2104057813,2046355,-4598950,4062776,-5116348,3724387,-6173671,-7441070,-6768510,-6940952
2104057814,2046356,-4597893,4061013,-5115628,3722607,-6172524,-7440315,-6764953,-6938882
2104057815,2046357,-4596572,4058957,-5114734,3721898,-6171091,-7439414,-6761357,-6936510
2104057816,2046358,-4594619,4056205,-5113350,3721621,-6169144,-7438172,-6757451,-6933507
2104057817,2046359,-4590984,4051351,-5110664,3719889,-6165846,-7436355,-6752762,-6928866
2104057818,2046360,-4586092,4045043,-5107185,3716511,-6161384,-7433973,-6747117,-6922633
2104057819,2046361,-4581834,4040342,-5104341,3723439,-6157382,-7431881,-6742897,-6917445
2104057820,2046362,-4579373,4040741,-5102644,3760065,-6155464,-7431549,-6748674,-6919007
2104057821,2046363,-4578321,4041898,-5101841,3784279,-6154776,-7431967,-6758491,-6923263
2104057822,2046364,-4578316,4042274,-5101774,3786871,-6154667,-7432474,-6764924,-6925932
2104057823,2046365,-4578996,4043369,-5102167,3788288,-6155081,-7433157,-6770344,-6928521
2104057824,2046366,-4580176,4045056,-5102927,3789438,-6155971,-7434063,-6775431,-6931324
2104057825,2046367,-4581686,4047103,-5103943,3789759,-6157177,-7435146,-6780349,-6934334
2104057826,2046368,-4583532,4049749,-5105211,3790143,-6158919,-7436356,-6785193,-6937609
2104057827,2046369,-4587207,4054792,-5107812,3791350,-6162490,-7438323,-6790816,-6942526
2104057828,2046370,-4592164,4060039,-5111284,3778436,-6167005,-7440386,-6793712,-6946867
2104057829,2046371,-4596234,4061669,-5113924,3741888,-6170149,-7440881,-6786166,-6945135
2104057830,2046372,-4599032,4063853,-5115984,3731353,-6172525,-7441406,-6779384,-6943774
2104057831,2046373,-4600152,4065023,-5116884,3729980,-6173674,-7441611,-6775186,-6943013
2104057832,2046374,-4600387,4065016,-5117119,3727876,-6173970,-7441462,-6771488,-6941893
2104057833,2046375,-4599839,4063941,-5116759,3725693,-6173426,-7440952,-6767908,-6940259
2104057834,2046376,-4598812,4062203,-5116068,3723891,-6172304,-7440217,-6764361,-6938213
2104057835,2046377,-4597501,4060170,-5115195,3723079,-6170892,-7439327,-6760773,-6935863
2104057836,2046378,-4595670,4057533,-5113924,3722742,-6169057,-7438180,-6756970,-6932968
2104057837,2046379,-4592077,4052734,-5111246,3720739,-6165805,-7436384,-6752304,-6928372
2104057838,2046380,-4587110,4046369,-5107652,3717173,-6161276,-7433934,-6746582,-6922082
2104057839,2046381,-4582734,4041514,-5104728,3723929,-6157146,-7431712,-6742166,-6916725
2104057840,2046382,-4580221,4041803,-5103006,3760203,-6155174,-7431324,-6747699,-6918124
2104057841,2046383,-4579371,4043221,-5102426,3785038,-6154701,-7431986,-6757817,-6922624
2104057842,2046384,-4579286,4043533,-5102286,3787769,-6154516,-7432422,-6764229,-6925248
2104057843,2046385,-4579980,4044633,-5102697,3789176,-6154953,-7433134,-6769687,-6927867
2104057844,2046386,-4581132,4046303,-5103436,3790359,-6155819,-7434026,-6774753,-6930646
2104057845,2046387,-4582480,4048190,-5104287,3790676,-6156864,-7434954,-6779521,-6933501
2104057846,2046388,-4584336,4050831,-5105567,3791014,-6158621,-7436185,-6784396,-6936793
2104057847,2046389,-4588066,4055916,-5108241,3792235,-6162256,-7438231,-6790101,-6941775
2104057848,2046390,-4593059,4061235,-5111751,3779679,-6166782,-7440329,-6793106,-6946180
2104057849,2046391,-4597364,4063118,-5114642,3743202,-6170155,-7441053,-6785852,-6944717
2104129712,2046392,-4600043,4065162,-5116557,3732405,-6172411,-7441435,-6778888,-6943194
2104129713,2046393,-4601172,4066318,-5117445,3730964,-6173566,-7441624,-6774664,-6942426
2104129714,2046394,-4601401,4066311,-5117649,3728940,-6173851,-7441456,-6770944,-6941292
2104129715,2046395,-4600875,4065285,-5117320,3726799,-6173346,-7440960,-6767380,-6939691
2104129716,2046396,-4599745,4063466,-5116548,3725036,-6172134,-7440124,-6763738,-6937551
2104129717,2046397,-4598567,4061549,-5115790,3724284,-6170846,-7439364,-6760284,-6935321
2104129718,2046398,-4596842,4059011,-5114600,3723920,-6169106,-7438314,-6756567,-6932537
2104129719,2046399,-4593089,4054077,-5111754,3721917,-6165685,-7436336,-6751722,-6927792
2104129720,2046400,-4588179,4047766,-5108209,3718275,-6161205,-7433936,-6746071,-6921565
2104129721,2046401,-4583811,4042848,-5105330,3724339,-6157091,-7431739,-6741567,-6916163
2104129722,2046402,-4581381,4043134,-5103711,3759985,-6155186,-7431416,-6746869,-6917461
2104129723,2046403,-4580544,4044665,-5103137,3785867,-6154735,-7432122,-6757106,-6922047
2104129724,2046404,-4580492,4045016,-5103026,3788775,-6154584,-7432603,-6763639,-6924747
2104129725,2046405,-4581059,4045979,-5103306,3790162,-6154893,-7433184,-6768993,-6927251
2104129726,2046406,-4582209,4047639,-5104043,3791303,-6155758,-7434069,-6774076,-6930041
2104129727,2046407,-4583616,4049590,-5104967,3791603,-6156867,-7435071,-6778924,-6932961
2104129728,2046408,-4585512,4052253,-5106291,3791916,-6158649,-7436352,-6783842,-6936294
2104129729,2046409,-4589127,4057210,-5108867,3793143,-6162167,-7438317,-6789470,-6941161
2104129730,2046410,-4593914,4062361,-5112178,3780949,-6166513,-7440229,-6792377,-6945415
2104129731,2046411,-4598155,4064198,-5115004,3744530,-6169823,-7440883,-6785117,-6943924
2104129732,2046412,-4600969,4066349,-5117032,3733464,-6172202,-7441359,-6778191,-6942479
2104129733,2046413,-4602217,4067646,-5118016,3732111,-6173466,-7441632,-6774044,-6941807
2104129734,2046414,-4602496,4067704,-5118276,3730096,-6173813,-7441511,-6770371,-6940739
2104129735,2046415,-4601982,4066696,-5117951,3727964,-6173315,-7441026,-6766811,-6939147
2104129736,2046416,-4600908,4064919,-5117216,3726119,-6172147,-7440242,-6763217,-6937066
2104129737,2046417,-4599419,4062694,-5116152,3725277,-6170556,-7439171,-6759454,-6934537
2104129738,2046418,-4597551,4060039,-5114819,3724926,-6168675,-7437960,-6755592,-6931601
2104129739,2046419,-4594241,4055532,-5112472,3723411,-6165687,-7436396,-6751177,-6927295
2104129740,2046420,-4589448,4049314,-5109016,3720053,-6161337,-7434112,-6745656,-6921197
2104129741,2046421,-4584995,4044262,-5106021,3725408,-6157131,-7431841,-6740994,-6915657
2104129742,2046422,-4582470,4044399,-5104307,3760543,-6155127,-7431432,-6746014,-6916756
2104129743,2046423,-4581507,4045845,-5103614,3787074,-6154564,-7432023,-6756190,-6921272
2104129744,2046424,-4581300,4046061,-5103359,3790206,-6154277,-7432369,-6762632,-6923854
2104129745,2046425,-4582048,4047204,-5103832,3791582,-6154764,-7433148,-6768204,-6926549
2104129746,2046426,-4583101,4048774,-5104476,3792773,-6155521,-7433940,-6773202,-6929239
2104129747,2046427,-4584251,4050468,-5105139,3793172,-6156377,-7434684,-6777799,-6931907
2104129748,2046428,-4586305,4053274,-5106629,3793402,-6158307,-7436133,-6782899,-6935394
2104129749,2046429,-4589834,4058141,-5109126,3794716,-6161752,-7438039,-6788467,-6940186
2104129750,2046430,-4594722,4063518,-5112541,3783778,-6166220,-7440101,-6791795,-6944726
2104129751,2046431,-4599072,4065464,-5115473,3747258,-6169642,-7440869,-6784916,-6943473
2104129752,2046432,-4601862,4067495,-5117454,3734972,-6171975,-7441267,-6777748,-6941871
2104129753,2046433,-4603076,4068759,-5118402,3733600,-6173191,-7441491,-6773486,-6941129
2104129754,2046434,-4603292,4068761,-5118611,3731527,-6173491,-7441315,-6769723,-6939986
2104129755,2046435,-4602785,4067753,-5118293,3729336,-6173004,-7440829,-6766149,-6938386
2104129756,2046436,-4601703,4065963,-5117540,3727516,-6171830,-7440034,-6762523,-6936290
2104129757,2046437,-4600244,4063788,-5116514,3726706,-6170272,-7439000,-6758785,-6933794
2104129758,2046438,-4598594,4061341,-5115392,3726398,-6168593,-7437987,-6755114,-6931077
2104129759,2046439,-4595246,4056821,-5112972,3724931,-6165552,-7436340,-6750622,-6926733
2104129760,2046440,-4590360,4050510,-5109429,3721561,-6161113,-7433966,-6745011,-6920537
2104129761,2046441,-4585793,4045319,-5106314,3726813,-6156791,-7431585,-6740237,-6914874
2104129762,2046442,-4583250,4045436,-5104606,3762011,-6154773,-7431181,-6745277,-6915966
2104129763,2046443,-4582372,4046971,-5104022,3788516,-6154299,-7431880,-6755556,-6920571
2104129764,2046444,-4582258,4047266,-5103866,3791552,-6154107,-7432337,-6762088,-6923241
2104129765,2046445,-4582927,4048326,-5104261,3793019,-6154527,-7433034,-6767578,-6925847
2104129766,2046446,-4584029,4049951,-5104956,3794254,-6155345,-7433886,-6772629,-6928596
2104129767,2046447,-4585434,4051900,-5105879,3794613,-6156451,-7434894,-6777483,-6931522
2104129768,2046448,-4587259,4054466,-5107139,3794875,-6158150,-7436121,-6782346,-6934772
2104129769,2046449,-4590666,4059202,-5109532,3796121,-6161482,-7437939,-6787827,-6939450
2104129770,2046450,-4595509,4064584,-5112906,3785867,-6165914,-7439979,-6791270,-6944032
2104129771,2046451,-4599976,4066679,-5115949,3749463,-6169473,-7440874,-6784666,-6942968
2104129772,2046452,-4602770,4068659,-5117917,3736615,-6171785,-7441240,-6777357,-6941278
2104129773,2046453,-4604032,4069975,-5118915,3735240,-6173047,-7441489,-6773097,-6940564
2104129774,2046454,-4604528,4070256,-5119386,3733151,-6173606,-7441564,-6769569,-6939679
2104129775,2046455,-4604011,4069246,-5119041,3730973,-6173109,-7441040,-6765956,-6938060
2104129776,2046456,-4602742,4067285,-5118113,3729141,-6171757,-7440057,-6762147,-6935779
2104129777,2046457,-4601452,4065260,-5117239,3728304,-6170357,-7439178,-6758566,-6933441
2104129778,2046458,-4599712,4062737,-5116034,3728014,-6168597,-7438075,-6754799,-6930642
2104129779,2046459,-4596174,4058039,-5113409,3726562,-6165355,-7436210,-6750104,-6926106
2104129780,2046460,-4591517,4051948,-5110097,3723068,-6161144,-7434059,-6744718,-6920161
2104129781,2046461,-4587056,4046802,-5107097,3727649,-6156942,-7431801,-6739926,-6914542
2104129782,2046462,-4584369,4046668,-5105253,3761853,-6154759,-7431234,-6744396,-6915237
2104129783,2046463,-4583387,4048202,-5104558,3789730,-6154191,-7431857,-6754685,-6919816
2104129784,2046464,-4583292,4048546,-5104437,3793119,-6154041,-7432357,-6761377,-6922580
2104129785,2046465,-4583830,4049473,-5104711,3794537,-6154314,-7432939,-6766780,-6925077
2104129786,2046466,-4584882,4051041,-5105362,3795801,-6155083,-7433732,-6771805,-6927777
2104129787,2046467,-4586417,4053119,-5106419,3796170,-6156321,-7434866,-6776812,-6930842
2104129788,2046468,-4588163,4055600,-5107601,3796443,-6157935,-7436032,-6781624,-6934030
2104129789,2046469,-4591505,4060259,-5109937,3797704,-6161197,-7437809,-6787065,-6938644
2104207639,2046470,-4596534,4065890,-5113499,3788053,-6165818,-7440053,-6790886,-6943522
2104207640,2046471,-4600884,4067908,-5116422,3751417,-6169272,-7440836,-6784337,-6942436
2104207641,2046472,-4603669,4069824,-5118360,3737832,-6171562,-7441142,-6776871,-6940649
2104207642,2046473,-4605003,4071206,-5119409,3736539,-6172891,-7441439,-6772617,-6939974
2104207643,2046474,-4605361,4071362,-5119751,3734469,-6173321,-7441379,-6768949,-6938943
2104207644,2046475,-4604902,4070418,-5119467,3732329,-6172874,-7440922,-6765377,-6937370
2104207645,2046476,-4603906,4068713,-5118796,3730480,-6171787,-7440201,-6761818,-6935357
2104207646,2046477,-4602568,4066648,-5117891,3729639,-6170354,-7439272,-6758191,-6932986
2104207647,2046478,-4600761,4064074,-5116613,3729409,-6168526,-7438094,-6754357,-6930126
2104207648,2046479,-4597344,4059509,-5114069,3727771,-6165400,-7436331,-6749766,-6925706
2104207649,2046480,-4592515,4053261,-5110576,3723964,-6161021,-7433999,-6744216,-6919604
2104207650,2046481,-4588144,4048151,-5107702,3728214,-6156897,-7431829,-6739416,-6914012
2104207651,2046482,-4585333,4047808,-5105746,3761808,-6154581,-7431126,-6743476,-6914429
2104207652,2046483,-4584431,4049501,-5105149,3790532,-6154112,-7431851,-6753933,-6919152
2104207653,2046484,-4584231,4049754,-5104911,3794176,-6153844,-7432255,-6760594,-6921849
2104207654,2046485,-4584773,4050689,-5105192,3795548,-6154136,-7432857,-6766033,-6924372
2104207655,2046486,-4585829,4052254,-5105850,3796777,-6154911,-7433674,-6771092,-6927084
2104207656,2046487,-4587124,4054087,-5106658,3797229,-6155907,-7434575,-6775860,-6929902
2104207657,2046488,-4588923,4056604,-5107900,3797453,-6157562,-7435791,-6780729,-6933144
2104207658,2046489,-4592447,4061440,-5110442,3798700,-6161018,-7437777,-6786392,-6937937
2104207659,2046490,-4597364,4066996,-5113893,3789400,-6165545,-7439935,-6790184,-6942749
2104207660,2046491,-4601566,4068885,-5116633,3753067,-6168842,-7440564,-6783600,-6941570
2104207661,2046492,-4604587,4071012,-5118819,3739063,-6171354,-7441082,-6776289,-6939968
2104207662,2046493,-4605777,4072267,-5119744,3737705,-6172548,-7441228,-6771870,-6939145
2104207663,2046494,-4606175,4072448,-5120094,3735600,-6173009,-7441179,-6768194,-6938142
2104207664,2046495,-4605860,4071654,-5119950,3733446,-6172706,-7440841,-6764744,-6936715
2104207665,2046496,-4604868,4069973,-5119301,3731585,-6171640,-7440135,-6761211,-6934726
2104207666,2046497,-4603556,4067935,-5118407,3730697,-6170225,-7439229,-6757609,-6932376
2104207667,2046498,-4601757,4065364,-5117123,3730363,-6168399,-7438039,-6753758,-6929504
2104207668,2046499,-4598514,4060970,-5114746,3728678,-6165440,-7436419,-6749316,-6925264
2104207669,2046500,-4593585,4054620,-5111122,3724925,-6160961,-7433996,-6743680,-6919075
2104207670,2046501,-4589233,4049492,-5108294,3728759,-6156856,-7431848,-6738849,-6913471
2104207671,2046502,-4586629,4049256,-5106562,3761368,-6154739,-7431345,-6742799,-6913903
2104207672,2046503,-4585646,4050946,-5105893,3791052,-6154210,-7432023,-6753221,-6918593
2104207673,2046504,-4585342,4051140,-5105571,3795054,-6153853,-7432351,-6759898,-6921263
2104207674,2046505,-4585699,4051886,-5105685,3796464,-6153961,-7432776,-6765199,-6923618
2104207675,2046506,-4586757,4053454,-5106331,3797660,-6154728,-7433593,-6770270,-6926337
2104207676,2046507,-4588151,4055376,-5107233,3798129,-6155816,-7434584,-6775147,-6929244
2104207677,2046508,-4589885,4057827,-5108419,3798369,-6157408,-7435753,-6779979,-6932432
2104207678,2046509,-4593369,4062614,-5110938,3799598,-6160837,-7437741,-6785639,-6937210
2104207679,2046510,-4598369,4068273,-5114478,3790667,-6165441,-7439981,-6789601,-6942136
2104207680,2046511,-4602511,4070126,-5117150,3754454,-6168668,-7440537,-6783044,-6940937
2104207681,2046512,-4605480,4072172,-5119255,3740123,-6171119,-7440967,-6775589,-6939241
2104207682,2046513,-4606844,4073598,-5120336,3738779,-6172467,-7441261,-6771291,-6938575
2104207683,2046514,-4607347,4073902,-5120809,3736744,-6173042,-7441317,-6767727,-6937682
2104207684,2046515,-4606950,4073034,-5120566,3734616,-6172657,-7440902,-6764194,-6936176
2104207685,2046516,-4605821,4071231,-5119772,3732723,-6171458,-7440060,-6760513,-6934053
2104207686,2046517,-4604514,4069187,-5118884,3731794,-6170049,-7439155,-6756916,-6931708
2104207687,2046518,-4602854,4066758,-5117748,3731466,-6168366,-7438098,-6753212,-6928984
2104207688,2046519,-4599555,4062324,-5115349,3730196,-6165344,-7436396,-6748693,-6924688
2104207689,2046520,-4594672,4056009,-5111792,3726913,-6160911,-7434014,-6743107,-6918557
2104207690,2046521,-4590124,4050653,-5108708,3730274,-6156613,-7431694,-6738092,-6912756
2104207691,2046522,-4587446,4050330,-5106919,3762889,-6154427,-7431152,-6742008,-6913129
2104207692,2046523,-4586451,4051999,-5106237,3792487,-6153879,-7431826,-6752431,-6917804
2104207693,2046524,-4586239,4052280,-5106009,3796531,-6153624,-7432234,-6759200,-6920555
2104207694,2046525,-4586675,4053098,-5106195,3797956,-6153817,-7432745,-6764572,-6922984
2104207695,2046526,-4587774,4054703,-5106891,3799216,-6154629,-7433607,-6769691,-6925740
2104207696,2046527,-4589159,4056619,-5107796,3799591,-6155710,-7434604,-6774557,-6928647
2104207697,2046528,-4591022,4059189,-5109111,3799794,-6157422,-7435910,-6779521,-6931952
2104207698,2046529,-4594377,4063837,-5111514,3801036,-6160723,-7437798,-6785071,-6936600
2104207699,2046530,-4599192,4069359,-5114876,3792573,-6165157,-7439880,-6788968,-6941408
2104207700,2046531,-4603653,4071542,-5117874,3756524,-6168718,-7440752,-6782860,-6940597
2104207701,2046532,-4606547,4073471,-5119880,3741648,-6171072,-7441059,-6775206,-6938739
2104207702,2046533,-4607952,4074959,-5121002,3740334,-6172476,-7441387,-6770908,-6938100
2104207703,2046534,-4608177,4074991,-5121186,3738304,-6172764,-7441164,-6767041,-6936919
2104207704,2046535,-4607900,4074247,-5121068,3736149,-6172514,-7440864,-6763616,-6935531
2104207705,2046536,-4606907,4072570,-5120396,3734245,-6171447,-7440151,-6760067,-6933537
2104207706,2046537,-4605533,4070459,-5119437,3733351,-6169959,-7439171,-6756389,-6931126
2104207707,2046538,-4603924,4068090,-5118334,3733047,-6168312,-7438152,-6752712,-6928453
2104207708,2046539,-4600764,4063807,-5116053,3731848,-6165417,-7436554,-6748314,-6924304
2104207709,2046540,-4595888,4057490,-5112509,3728499,-6161008,-7434167,-6742736,-6918180
2104207710,2046541,-4591286,4052049,-5109379,3731465,-6156659,-7431798,-6737604,-6912283
2104279572,2046542,-4588364,4051396,-5107341,3763391,-6154202,-7430988,-6741021,-6912266
2104279573,2046543,-4587236,4053002,-5106549,3793807,-6153532,-7431549,-6751379,-6916859
2104279574,2046544,-4587111,4053387,-5106419,3798013,-6153374,-7432087,-6758330,-6919749
2104279575,2046545,-4587670,4054319,-5106726,3799411,-6153690,-7432737,-6763865,-6922306
2104279576,2046546,-4588861,4056016,-5107518,3800686,-6154594,-7433689,-6769082,-6925162
2104279577,2046547,-4590294,4057991,-5108478,3801118,-6155733,-7434737,-6774018,-6928124
2104279578,2046548,-4591862,4060265,-5109501,3801367,-6157142,-7435752,-6778690,-6931145
2104279579,2046549,-4595096,4064768,-5111789,3802603,-6160316,-7437545,-6784144,-6935671
2104279580,2046550,-4600057,4070500,-5115297,3794926,-6164896,-7439789,-6788407,-6940737
2104279581,2046551,-4604397,4072623,-5118172,3759219,-6168349,-7440564,-6782490,-6939976
2104279582,2046552,-4607501,4074676,-5120376,3743283,-6170902,-7441061,-6774875,-6938220
2104279583,2046553,-4608906,4076151,-5121472,3741902,-6172285,-7441347,-6770483,-6937517
2104279584,2046554,-4609332,4076383,-5121844,3739853,-6172771,-7441293,-6766771,-6936521
2104279585,2046555,-4608875,4075465,-5121557,3737740,-6172347,-7440799,-6763142,-6934956
2104279586,2046556,-4607849,4073751,-5120848,3735780,-6171240,-7440043,-6759536,-6932914
2104279587,2046557,-4606347,4071519,-5119774,3734866,-6169636,-7438952,-6755732,-6930387
2104279588,2046558,-4604893,4069299,-5118828,3734518,-6168150,-7438089,-6752221,-6927872
2104279589,2046559,-4601749,4065035,-5116495,3732939,-6165262,-7436471,-6747804,-6923715
2104279590,2046560,-4596893,4058781,-5112941,3729076,-6160882,-7434106,-6742255,-6917634
2104279591,2046561,-4592268,4053286,-5109864,3731961,-6156506,-7431721,-6737035,-6911688
2104279592,2046562,-4589399,4052589,-5107902,3763089,-6154092,-7430946,-6740199,-6911535
2104279593,2046563,-4588325,4054312,-5107164,3794329,-6153496,-7431596,-6750655,-6916218
2104279594,2046564,-4587956,4054487,-5106793,3798953,-6153101,-7431902,-6757466,-6918918
2104279595,2046565,-4588525,4055428,-5107116,3800350,-6153422,-7432566,-6763034,-6921507
2104279596,2046566,-4589872,4057283,-5108075,3801615,-6154490,-7433693,-6768431,-6924530
2104279597,2046567,-4591162,4059111,-5108893,3802098,-6155482,-7434598,-6773234,-6927362
2104279598,2046568,-4592712,4061358,-5109897,3802331,-6156860,-7435598,-6777904,-6930355
2104279599,2046569,-4595837,4065746,-5112086,3803606,-6159934,-7437305,-6783284,-6934774
2104279600,2046570,-4600807,4071548,-5115616,3796610,-6164550,-7439610,-6787734,-6939952
2104279601,2046571,-4605291,4073837,-5118617,3761162,-6168152,-7440537,-6782168,-6939436
2104279602,2046572,-4608252,4075661,-5120647,3744363,-6170526,-7440821,-6774241,-6937431
2104279603,2046573,-4609865,4077359,-5121966,3742966,-6172125,-7441311,-6769999,-6936916
2104279604,2046574,-4610190,4077514,-5122253,3740953,-6172529,-7441174,-6766177,-6935826
2104279605,2046575,-4609806,4076667,-5122024,3738769,-6172171,-7440740,-6762601,-6934311
2104279606,2046576,-4608752,4074927,-5121281,3736873,-6171038,-7439944,-6758955,-6932233
2104279607,2046577,-4607364,4072828,-5120316,3735938,-6169552,-7438951,-6755259,-6929827
2104279608,2046578,-4605613,4070321,-5119074,3735654,-6167766,-7437777,-6751429,-6927015
2104279609,2046579,-4602655,4066241,-5116916,3734054,-6165043,-7436311,-6747174,-6923044
2104279610,2046580,-4597909,4060083,-5113434,3730121,-6160756,-7434043,-6741726,-6917072
2104279611,2046581,-4593278,4054548,-5110369,3732725,-6156386,-7431668,-6736472,-6911099
2104279612,2046582,-4590495,4053854,-5108517,3763039,-6154047,-7430979,-6739467,-6910888
2104279613,2046583,-4589399,4055619,-5107777,3795023,-6153444,-7431629,-6749940,-6915576
2104279614,2046584,-4589100,4055900,-5107471,3799998,-6153134,-7432024,-6756911,-6918409
2104279615,2046585,-4589549,4056718,-5107682,3801359,-6153332,-7432577,-6762397,-6920886
2104279616,2046586,-4590535,4058209,-5108286,3802660,-6154042,-7433346,-6767464,-6923561
2104279617,2046587,-4592026,4060235,-5109301,3803167,-6155233,-7434457,-6772469,-6926586
2104279618,2046588,-4593700,4062591,-5110437,3803298,-6156736,-7435597,-6777275,-6929711
2104279619,2046589,-4596767,4066898,-5112579,3804534,-6159743,-7437275,-6782612,-6934069
2104279620,2046590,-4601729,4072731,-5116113,3797824,-6164357,-7439589,-6787124,-6939272
2104279621,2046591,-4606148,4074994,-5119055,3762667,-6167895,-7440448,-6781593,-6938747
2104279622,2046592,-4609176,4076870,-5121156,3745510,-6170334,-7440777,-6773680,-6936780
2104279623,2046593,-4610702,4078483,-5122359,3744036,-6171843,-7441152,-6769312,-6936161
2104279624,2046594,-4611224,4078828,-5122824,3742015,-6172431,-7441184,-6765656,-6935246
2104279625,2046595,-4610752,4077909,-5122497,3739891,-6171988,-7440655,-6761981,-6933651
2104279626,2046596,-4609724,4076199,-5121785,3737910,-6170897,-7439882,-6758359,-6931621
2104279627,2046597,-4608338,4074074,-5120825,3736931,-6169402,-7438893,-6754674,-6929209
2104279628,2046598,-4606631,4071616,-5119620,3736597,-6167651,-7437762,-6750886,-6926433
2104279629,2046599,-4603602,4067499,-5117434,3735452,-6164860,-7436207,-6746535,-6922399
2104279630,2046600,-4598866,4061353,-5113998,3732052,-6160604,-7433950,-6741124,-6916460
2104279631,2046601,-4594298,4055841,-5110922,3734046,-6156289,-7431640,-6735907,-6910526
2104279632,2046602,-4591306,4054908,-5108869,3764118,-6153754,-7430767,-6738617,-6910062
2104279633,2046603,-4590127,4056604,-5108051,3796423,-6153065,-7431348,-6749031,-6914687
2104279634,2046604,-4589833,4056866,-5107748,3801457,-6152749,-7431749,-6756036,-6917532
2104279635,2046605,-4590429,4057825,-5108111,3802757,-6153107,-7432461,-6761682,-6920157
2104279636,2046606,-4591522,4059428,-5108821,3804043,-6153926,-7433338,-6766857,-6922936
2104279637,2046607,-4593001,4061434,-5109829,3804563,-6155098,-7434431,-6771855,-6925946
2104279638,2046608,-4594630,4063746,-5110921,3804764,-6156557,-7435529,-6776621,-6929027
2104279639,2046609,-4597506,4067856,-5112887,3805989,-6159382,-7437047,-6781796,-6933206
2104279640,2046610,-4602346,4073646,-5116304,3800104,-6163898,-7439276,-6786408,-6938406
2104279641,2046611,-4606774,4075989,-5119237,3765226,-6167458,-7440168,-6781240,-6938061
2104279642,2046612,-4609959,4077914,-5121464,3746767,-6170023,-7440611,-6773282,-6936117
2104279643,2046613,-4611562,4079594,-5122754,3745309,-6171591,-7441039,-6768890,-6935522
2104279644,2046614,-4611921,4079781,-5123052,3743331,-6172012,-7440901,-6765038,-6934419
2104279645,2046615,-4611676,4079101,-5122960,3741139,-6171804,-7440593,-6761563,-6933046
2104279646,2046616,-4610678,4077430,-5122276,3739114,-6170737,-7439838,-6757945,-6931032
2104279647,2046617,-4609336,4075346,-5121336,3738108,-6169292,-7438888,-6754281,-6928653
2104279648,2046618,-4607909,4073157,-5120404,3737734,-6167816,-7438024,-6750754,-6926163
2104279649,2046619,-4605043,4069204,-5118393,3736517,-6165182,-7436594,-6746554,-6922300
2104357500,2046620,-4600219,4062951,-5114871,3733456,-6160827,-7434232,-6741037,-6916278
2104357501,2046621,-4595432,4057183,-5111554,3734973,-6156311,-7431720,-6735549,-6910097
2104357502,2046622,-4592421,4056114,-5109494,3763871,-6153734,-7430814,-6737862,-6909389
2104357503,2046623,-4591192,4057836,-5108635,3797146,-6152994,-7431355,-6748222,-6913976
2104357504,2046624,-4590909,4058184,-5108366,3802731,-6152707,-7431802,-6755402,-6916930
2104357505,2046625,-4591334,4058959,-5108561,3804120,-6152889,-7432351,-6760926,-6919407
2104357506,2046626,-4592505,4060627,-5109340,3805349,-6153781,-7433312,-6766189,-6922263
2104357507,2046627,-4593998,4062654,-5110369,3805830,-6154982,-7434431,-6771229,-6925300
2104357508,2046628,-4595561,4064888,-5111404,3806034,-6156364,-7435476,-6775954,-6928331
2104357509,2046629,-4598599,4069149,-5113547,3807229,-6159353,-7437183,-6781327,-6932677
2104357510,2046630,-4603417,4074911,-5116941,3801441,-6163832,-7439387,-6785917,-6937841
2104357511,2046631,-4607930,4077357,-5119951,3766675,-6167477,-7440349,-6780859,-6937607
2104357512,2046632,-4611111,4079293,-5122161,3748169,-6170034,-7440761,-6772861,-6935642
2104357513,2046633,-4612685,4080954,-5123412,3746678,-6171579,-7441145,-6768422,-6935022
2104357514,2046634,-4613166,4081259,-5123831,3744626,-6172127,-7441119,-6764686,-6934058
2104357515,2046635,-4612675,4080331,-5123486,3742449,-6171671,-7440556,-6760962,-6932436
2104357516,2046636,-4611652,4078634,-5122771,3740497,-6170582,-7439780,-6757327,-6930403
2104357517,2046637,-4610410,4076656,-5121944,3739432,-6169234,-7438933,-6753774,-6928134
2104357518,2046638,-4608876,4074383,-5120906,3739133,-6167667,-7437958,-6750148,-6925531
2104357519,2046639,-4605919,4070348,-5118748,3737828,-6164920,-7436416,-6745835,-6921569
2104357520,2046640,-4601213,4064228,-5115262,3733981,-6160690,-7434163,-6740442,-6915679
2104357521,2046641,-4596466,4058474,-5112094,3735451,-6156222,-7431705,-6734960,-6909518
2104357522,2046642,-4593347,4057196,-5109951,3763558,-6153522,-7430676,-6736871,-6908527
2104357523,2046643,-4592019,4058884,-5109009,3797572,-6152699,-7431141,-6747153,-6913047
2104357524,2046644,-4591654,4059176,-5108669,3803529,-6152350,-7431527,-6754357,-6915981
2104357525,2046645,-4592299,4060174,-5109088,3804863,-6152762,-7432310,-6760137,-6918696
2104357526,2046646,-4593316,4061688,-5109717,3806168,-6153499,-7433119,-6765272,-6921409
2104357527,2046647,-4594643,4063559,-5110568,3806671,-6154519,-7434072,-6770154,-6924283
2104357528,2046648,-4596409,4065982,-5111802,3806848,-6156103,-7435316,-6775094,-6927515
2104357529,2046649,-4599431,4070203,-5113940,3807979,-6159077,-7437040,-6780474,-6931848
2104357530,2046650,-4604192,4075956,-5117288,3802611,-6163524,-7439224,-6785133,-6937029
2104357531,2046651,-4608655,4078418,-5120269,3768304,-6167148,-7440153,-6780236,-6936855
2104357532,2046652,-4611856,4080309,-5122481,3749141,-6169711,-7440547,-6772159,-6934840
2104357533,2046653,-4613536,4082054,-5123810,3747566,-6171337,-7441004,-6767741,-6934276
2104357534,2046654,-4613877,4082231,-5124091,3745479,-6171750,-7440846,-6763846,-6933166
2104357535,2046655,-4613554,4081477,-5123902,3743323,-6171470,-7440439,-6760272,-6931705
2104357536,2046656,-4612596,4079854,-5123261,3741370,-6170448,-7439723,-6756699,-6929737
2104357537,2046657,-4611371,4077900,-5122446,3740321,-6169106,-7438887,-6753154,-6927486
2104357538,2046658,-4609744,4075509,-5121303,3740010,-6167431,-7437789,-6749412,-6924786
2104357539,2046659,-4606812,4071502,-5119184,3738993,-6164699,-7436237,-6745090,-6920839
2104357540,2046660,-4602101,4065387,-5115749,3735783,-6160465,-7433996,-6739696,-6914969
2104357541,2046661,-4597415,4059667,-5112555,3736766,-6156051,-7431594,-6734274,-6908861
2104357542,2046662,-4594264,4058326,-5110393,3764757,-6153325,-7430554,-6736154,-6907828
2104357543,2046663,-4593001,4060083,-5109541,3798826,-6152581,-7431117,-6746541,-6912429
2104357544,2046664,-4592712,4060453,-5109274,3804810,-6152304,-7431591,-6753837,-6915441
2104357545,2046665,-4593273,4061367,-5109610,3806153,-6152628,-7432301,-6759546,-6918077
2104357546,2046666,-4594322,4062908,-5110271,3807464,-6153386,-7433139,-6764714,-6920812
2104357547,2046667,-4595722,4064843,-5111196,3808053,-6154491,-7434164,-6769664,-6923751
2104357548,2046668,-4597372,4067141,-5112319,3808248,-6155950,-7435299,-6774484,-6926857
2104357549,2046669,-4600351,4071314,-5114436,3809350,-6158877,-7437000,-6779837,-6931147
2104357550,2046670,-4605155,4077148,-5117830,3804380,-6163374,-7439246,-6784626,-6936422
2104357551,2046671,-4609740,4079748,-5120911,3770333,-6167106,-7440296,-6779991,-6936447
2104357552,2046672,-4612884,4081536,-5123046,3750613,-6169591,-7440594,-6771743,-6934304
2104357553,2046673,-4614492,4083235,-5124309,3749098,-6171161,-7440967,-6767216,-6933653
2104411452,2046674,-4614927,4083513,-5124678,3747066,-6171656,-7440875,-6763383,-6932622
2104411453,2046675,-4614687,4082846,-5124569,3744866,-6171454,-7440537,-6759877,-6931248
2104411454,2046676,-4613776,4081278,-5123969,3742852,-6170487,-7439876,-6756352,-6929334
2104411455,2046677,-4612328,4079097,-5122937,3741734,-6168939,-7438824,-6752589,-6926868
2104411456,2046678,-4610838,4076858,-5121934,3741429,-6167397,-7437870,-6748991,-6924315
2104411457,2046679,-4607863,4072831,-5119769,3740408,-6164622,-7436262,-6744619,-6920348
2104411458,2046680,-4603187,4066743,-5116371,3737224,-6160422,-7434023,-6739256,-6914495
2104411459,2046681,-4598540,4061028,-5113214,3737943,-6156049,-7431676,-6733841,-6908410
2104411460,2046682,-4595372,4059580,-5111032,3765023,-6153294,-7430596,-6735451,-6907210
2104411461,2046683,-4594152,4061425,-5110219,3799689,-6152607,-7431226,-6745866,-6911849
2104411462,2046684,-4593825,4061792,-5109918,3806133,-6152299,-7431674,-6753234,-6914887
2104411463,2046685,-4594241,4062551,-5110117,3807495,-6152479,-7432244,-6758815,-6917385
2104411464,2046686,-4595142,4063945,-5110637,3808825,-6153096,-7432950,-6763857,-6919989
2104411465,2046687,-4596574,4065911,-5111599,3809361,-6154230,-7434009,-6768855,-6922973
2104411466,2046688,-4598282,4068266,-5112782,3809483,-6155752,-7435214,-6773751,-6926146
2104411467,2046689,-4601241,4072398,-5114883,3810566,-6158671,-7436926,-6779117,-6930426
2104411468,2046690,-4606107,4078318,-5118360,3805911,-6163239,-7439266,-6784067,-6935799
2104411469,2046691,-4610526,4080809,-5121266,3772336,-6166814,-7440157,-6779454,-6935747
2104411470,2046692,-4613879,4082778,-5123618,3752039,-6169507,-7440637,-6771329,-6933769
2104411471,2046693,-4615515,4084499,-5124902,3750393,-6171093,-7441017,-6766765,-6933123
2104411472,2046694,-4616032,4084854,-5125337,3748412,-6171677,-7440998,-6763002,-6932154
2104411473,2046695,-4615911,4084323,-5125350,3746283,-6171603,-7440778,-6759591,-6930887
2104411474,2046696,-4614926,4082671,-5124662,3744246,-6170551,-7440019,-6755973,-6928894
2104411475,2046697,-4613387,4080396,-5123524,3743156,-6168899,-7438861,-6752103,-6926331
2104411476,2046698,-4611840,4078109,-5122461,3742831,-6167293,-7437852,-6748439,-6923728
2104411477,2046699,-4609132,4074357,-5120565,3741876,-6164789,-7436487,-6744327,-6920027
2104411478,2046700,-4604516,4068341,-5117202,3738607,-6160659,-7434303,-6739027,-6914254
2104411479,2046701,-4599771,4062501,-5113961,3738977,-6156193,-7431858,-6733474,-6908051
2104411480,2046702,-4596594,4060921,-5111792,3764956,-6153405,-7430756,-6734694,-6906626
2104411481,2046703,-4595268,4062723,-5110883,3800465,-6152604,-7431298,-6744967,-6911156
2104411482,2046704,-4594954,4063148,-5110602,3807523,-6152323,-7431790,-6752502,-6914303
2104411483,2046705,-4595358,4063895,-5110789,3808879,-6152495,-7432351,-6758126,-6916808
2104411484,2046706,-4596339,4065366,-5111386,3810236,-6153187,-7433136,-6763281,-6919501
2104411485,2046707,-4597644,4067211,-5112235,3810835,-6154195,-7434086,-6768181,-6922367
2104411486,2046708,-4599187,4069401,-5113253,3810966,-6155543,-7435131,-6772922,-6925378
2104411487,2046709,-4601981,4073361,-5115202,3812011,-6158296,-7436704,-6778152,-6929502
2104411488,2046710,-4606911,4079403,-5118751,3808015,-6162929,-7439129,-6783351,-6935041
2104411489,2046711,-4611494,4082146,-5121839,3775221,-6166699,-7440222,-6779286,-6935376
2104411490,2046712,-4614757,4083911,-5124059,3753673,-6169274,-7440572,-6770916,-6933191
2104411491,2046713,-4616375,4085604,-5125307,3751889,-6170837,-7440892,-6766212,-6932464
2104411492,2046714,-4617062,4086135,-5125917,3749953,-6171585,-7441034,-6762575,-6931652
2104411493,2046715,-4616841,4085497,-5125816,3747820,-6171399,-7440704,-6759042,-6930274
2104411494,2046716,-4615756,4083746,-5125036,3745768,-6170258,-7439841,-6755306,-6928173
2104411495,2046717,-4614379,4081645,-5124072,3744679,-6168776,-7438851,-6751604,-6925771
